%OpenBCI Raw EEG Data
%
%Sample Rate = 250.0 Hz
%First Column = SampleIndex
%Other Columns = EEG data in microvolts followed by Accel Data (in G) interleaved with Aux Data
0, -26421,24, -24486,18, -12089,63, -23417,50, -10557,26, -4164,93, -21874,67, -20584,93, -0,11, 0,96, 0,23
1, -26422,24, -24485,38, -12105,91, -23416,45, -10557,96, -4184,29, -21878,98, -20590,81, 0,00, 0,00, 0,00
2, -26420,05, -24486,60, -12098,19, -23415,04, -10551,39, -4160,20, -21868,50, -20556,70, 0,00, 0,00, 0,00
3, -26415,60, -24485,15, -12112,10, -23412,29, -10547,54, -4150,07, -21858,98, -20556,03, 0,00, 0,00, 0,00
4, -26420,90, -24491,50, -12101,90, -23415,78, -10550,45, -4151,93, -21859,74, -20575,92, 0,00, 0,00, 0,00
5, -26421,71, -24491,97, -12092,54, -23412,76, -10552,12, -4166,92, -21873,33, -20584,84, 0,00, 0,00, 0,00
6, -26420,25, -24497,29, -12080,76, -23413,16, -10551,72, -4168,06, -21885,40, -20575,79, 0,00, 0,00, 0,00
7, -26421,91, -24499,77, -12095,22, -23415,84, -10554,58, -4171,06, -21885,40, -20574,31, -0,09, 0,98, 0,22
8, -26422,53, -24492,95, -12096,14, -23410,19, -10546,98, -4148,15, -21868,86, -20539,49, 0,00, 0,00, 0,00
9, -26417,66, -24491,37, -12087,58, -23404,80, -10544,46, -4151,59, -21874,22, -20538,99, 0,00, 0,00, 0,00
10, -26422,82, -24499,50, -12082,62, -23411,08, -10550,25, -4169,43, -21890,13, -20574,56, 0,00, 0,00, 0,00
11, -26420,68, -24494,74, -12085,27, -23408,40, -10542,20, -4176,92, -21858,29, -20564,43, 0,00, 0,00, 0,00
12, -26419,25, -24495,52, -12078,46, -23406,99, -10536,54, -4157,89, -21846,53, -20536,49, 0,00, 0,00, 0,00
13, -26417,37, -24495,77, -12088,72, -23408,69, -10543,05, -4145,62, -21871,11, -20546,33, 0,00, 0,00, 0,00
14, -26411,92, -24489,49, -12095,94, -23408,06, -10546,85, -4163,91, -21882,20, -20562,75, 0,00, 0,00, 0,00
15, -26416,83, -24491,79, -12085,74, -23408,13, -10544,86, -4175,37, -21878,87, -20572,61, 0,00, 0,00, 0,00
16, -26414,33, -24485,60, -12079,67, -23407,39, -10546,76, -4176,27, -21886,89, -20574,65, 0,00, 0,00, 0,00
17, -26404,09, -24473,84, -12096,52, -23398,61, -10544,82, -4177,72, -21885,51, -20570,09, -0,09, 0,98, 0,23
18, -26404,83, -24476,39, -12100,21, -23399,91, -10542,74, -4156,96, -21872,50, -20564,32, 0,00, 0,00, 0,00
19, -26399,26, -24474,85, -12084,00, -23399,91, -10538,40, -4155,08, -21860,63, -20571,07, 0,00, 0,00, 0,00
20, -26404,72, -24475,03, -12062,70, -23403,28, -10536,90, -4155,21, -21851,29, -20573,24, 0,00, 0,00, 0,00
21, -26412,18, -24475,88, -12058,61, -23403,48, -10538,09, -4155,77, -21859,71, -20571,67, 0,00, 0,00, 0,00
22, -26411,74, -24479,61, -12078,06, -23404,00, -10542,40, -4159,86, -21877,82, -20565,59, 0,00, 0,00, 0,00
23, -26417,88, -24486,87, -12080,71, -23410,48, -10543,81, -4139,16, -21871,40, -20555,69, 0,00, 0,00, 0,00
24, -26414,55, -24478,33, -12079,31, -23406,10, -10541,48, -4149,74, -21864,25, -20559,36, 0,00, 0,00, 0,00
25, -26413,08, -24478,89, -12063,75, -23403,66, -10542,45, -4152,15, -21862,67, -20562,71, 0,00, 0,00, 0,00
26, -26413,48, -24481,96, -12087,73, -23405,05, -10553,35, -4179,69, -21887,14, -20578,02, -0,08, 0,98, 0,23
27, -26412,34, -24477,04, -12112,12, -23405,16, -10551,01, -4190,86, -21882,60, -20578,80, 0,00, 0,00, 0,00
28, -26418,13, -24484,23, -12118,47, -23406,90, -10546,20, -4177,92, -21858,49, -20594,47, 0,00, 0,00, 0,00
29, -26421,82, -24486,92, -12090,97, -23407,93, -10547,32, -4161,87, -21856,59, -20578,38, 0,00, 0,00, 0,00
30, -26414,87, -24482,56, -12060,02, -23400,42, -10541,02, -4151,10, -21856,92, -20552,67, 0,00, 0,00, 0,00
31, -26410,51, -24479,67, -12068,62, -23396,98, -10543,25, -4163,59, -21863,07, -20547,69, 0,00, 0,00, 0,00
32, -26409,50, -24475,88, -12095,40, -23394,18, -10540,77, -4172,33, -21864,83, -20532,67, 0,00, 0,00, 0,00
33, -26408,76, -24481,42, -12080,60, -23396,64, -10534,44, -4134,54, -21855,29, -20523,68, 0,00, 0,00, 0,00
34, -26419,94, -24487,10, -12047,34, -23404,55, -10535,43, -4114,46, -21853,99, -20539,06, 0,00, 0,00, 0,00
35, -26420,01, -24489,71, -12049,98, -23403,75, -10540,99, -4134,98, -21866,13, -20556,99, 0,00, 0,00, 0,00
36, -26416,70, -24490,87, -12075,40, -23403,79, -10546,25, -4165,29, -21885,62, -20567,58, -0,08, 0,97, 0,23
37, -26415,18, -24482,63, -12101,84, -23396,89, -10541,89, -4178,50, -21871,72, -20561,30, 0,00, 0,00, 0,00
38, -26416,41, -24480,99, -12088,54, -23398,88, -10537,33, -4142,74, -21864,70, -20553,90, 0,00, 0,00, 0,00
39, -26405,59, -24469,86, -12072,80, -23396,96, -10540,64, -4139,03, -21875,03, -20563,63, 0,00, 0,00, 0,00
40, -26404,99, -24472,07, -12064,80, -23399,17, -10546,96, -4151,70, -21880,39, -20566,49, 0,00, 0,00, 0,00
41, -26404,56, -24473,21, -12063,37, -23397,78, -10546,49, -4152,84, -21875,76, -20566,67, 0,00, 0,00, 0,00
42, -26400,85, -24470,11, -12083,26, -23395,39, -10544,26, -4155,19, -21874,22, -20577,84, 0,00, 0,00, 0,00
43, -26393,77, -24461,68, -12101,08, -23387,26, -10538,87, -4146,72, -21874,62, -20567,87, 0,00, 0,00, 0,00
44, -26400,52, -24465,93, -12088,83, -23394,88, -10541,22, -4144,28, -21861,03, -20577,93, 0,00, 0,00, 0,00
45, -26397,07, -24469,17, -12082,21, -23394,61, -10539,52, -4158,54, -21857,70, -20589,96, 0,00, 0,00, 0,00
46, -26401,59, -24473,26, -12073,96, -23395,50, -10533,71, -4159,26, -21857,57, -20577,69, -0,08, 0,98, 0,23
47, -26401,14, -24476,08, -12083,96, -23399,06, -10537,42, -4156,96, -21870,22, -20567,70, 0,00, 0,00, 0,00
48, -26405,84, -24477,33, -12095,78, -23401,98, -10538,69, -4149,13, -21866,64, -20572,19, 0,00, 0,00, 0,00
49, -26411,33, -24474,09, -12075,82, -23401,36, -10539,18, -4144,48, -21881,17, -20561,53, 0,00, 0,00, 0,00
50, -26416,03, -24479,52, -12052,73, -23401,45, -10539,38, -4142,09, -21879,05, -20545,43, 0,00, 0,00, 0,00
51, -26412,59, -24481,02, -12061,69, -23396,96, -10533,50, -4154,18, -21852,56, -20529,72, 0,00, 0,00, 0,00
52, -26417,06, -24481,78, -12062,28, -23399,24, -10534,76, -4136,41, -21852,38, -20533,38, 0,00, 0,00, 0,00
53, -26416,79, -24481,66, -12068,87, -23401,22, -10539,94, -4118,33, -21860,88, -20550,89, 0,00, 0,00, 0,00
54, -26411,22, -24478,36, -12074,32, -23399,64, -10539,88, -4135,23, -21853,88, -20577,60, 0,00, 0,00, 0,00
55, -26414,26, -24482,83, -12065,18, -23401,09, -10540,64, -4147,21, -21855,13, -20569,55, 0,00, 0,00, 0,00
56, -26417,23, -24485,15, -12055,90, -23399,73, -10540,32, -4142,31, -21852,21, -20545,25, -0,09, 0,97, 0,23
57, -26415,69, -24486,25, -12074,19, -23400,02, -10544,88, -4144,08, -21854,71, -20551,96, 0,00, 0,00, 0,00
58, -26415,60, -24489,02, -12081,32, -23403,37, -10546,65, -4127,94, -21857,79, -20561,68, 0,00, 0,00, 0,00
59, -26414,93, -24490,56, -12066,23, -23402,92, -10544,17, -4124,81, -21857,97, -20564,03, 0,00, 0,00, 0,00
60, -26413,10, -24490,92, -12062,72, -23401,54, -10546,69, -4140,37, -21864,83, -20573,55, 0,00, 0,00, 0,00
61, -26408,29, -24480,59, -12076,63, -23399,82, -10550,31, -4161,43, -21876,19, -20583,68, 0,00, 0,00, 0,00
62, -26412,05, -24485,33, -12085,61, -23400,89, -10549,06, -4155,12, -21874,76, -20560,38, 0,00, 0,00, 0,00
63, -26415,94, -24485,31, -12088,78, -23401,54, -10551,92, -4134,94, -21892,82, -20560,45, 0,00, 0,00, 0,00
64, -26415,87, -24482,96, -12081,43, -23403,68, -10558,70, -4141,58, -21909,78, -20587,92, 0,00, 0,00, 0,00
65, -26407,98, -24474,15, -12062,77, -23398,19, -10548,75, -4147,50, -21871,58, -20602,50, 0,00, 0,00, 0,00
66, -26403,09, -24475,85, -12071,55, -23390,03, -10538,27, -4162,30, -21839,98, -20581,31, -0,08, 0,97, 0,23
67, -26404,92, -24481,22, -12073,61, -23387,34, -10532,14, -4148,73, -21836,22, -20535,08, 0,00, 0,00, 0,00
68, -26411,96, -24484,57, -12064,93, -23394,99, -10538,44, -4116,65, -21845,05, -20549,54, 0,00, 0,00, 0,00
69, -26412,72, -24484,86, -12056,24, -23400,62, -10548,46, -4118,13, -21871,99, -20568,50, 0,00, 0,00, 0,00
70, -26404,54, -24488,73, -12044,53, -23397,60, -10546,47, -4128,79, -21875,54, -20573,26, 0,00, 0,00, 0,00
71, -26400,61, -24480,75, -12061,25, -23390,90, -10540,61, -4152,89, -21860,43, -20566,67, 0,00, 0,00, 0,00
72, -26404,99, -24475,40, -12085,79, -23385,80, -10532,99, -4161,20, -21847,18, -20531,46, 0,00, 0,00, 0,00
73, -26406,66, -24479,09, -12084,92, -23383,59, -10529,44, -4135,01, -21840,67, -20519,82, 0,00, 0,00, 0,00
74, -26404,16, -24477,53, -12089,19, -23382,99, -10532,41, -4148,13, -21851,76, -20537,12, 0,00, 0,00, 0,00
75, -26404,16, -24477,35, -12065,29, -23385,29, -10528,30, -4143,70, -21845,61, -20542,10, 0,00, 0,00, 0,00
76, -26409,41, -24482,56, -12062,21, -23394,10, -10534,20, -4145,73, -21862,40, -20560,94, -0,08, 0,97, 0,23
77, -26408,88, -24480,90, -12083,26, -23394,38, -10537,84, -4155,61, -21877,87, -20585,67, 0,00, 0,00, 0,00
78, -26407,56, -24474,27, -12080,00, -23392,15, -10538,83, -4130,49, -21877,51, -20579,90, 0,00, 0,00, 0,00
79, -26407,80, -24478,09, -12073,21, -23391,90, -10539,50, -4132,37, -21869,62, -20571,63, 0,00, 0,00, 0,00
80, -26407,87, -24488,62, -12057,13, -23392,31, -10539,34, -4138,36, -21871,90, -20565,59, 0,00, 0,00, 0,00
81, -26410,84, -24488,53, -12056,69, -23396,62, -10543,65, -4143,79, -21871,20, -20562,06, 0,00, 0,00, 0,00
82, -26410,20, -24489,64, -12061,98, -23403,21, -10547,23, -4134,65, -21862,75, -20550,55, 0,00, 0,00, 0,00
83, -26408,32, -24483,74, -12086,08, -23403,06, -10558,38, -4132,01, -21881,84, -20557,10, 0,00, 0,00, 0,00
84, -26410,46, -24483,79, -12080,83, -23397,38, -10557,71, -4137,67, -21879,09, -20558,22, 0,00, 0,00, 0,00
85, -26409,14, -24486,11, -12058,23, -23398,41, -10558,27, -4140,15, -21869,91, -20578,11, 0,00, 0,00, 0,00
86, -26407,49, -24481,78, -12075,57, -23397,76, -10563,12, -4166,63, -21872,84, -20605,54, -0,08, 0,97, 0,23
87, -26409,39, -24483,25, -12091,09, -23396,40, -10563,93, -4169,65, -21881,89, -20585,20, 0,00, 0,00, 0,00
88, -26404,96, -24482,94, -12097,12, -23390,81, -10559,32, -4154,05, -21880,95, -20567,02, 0,00, 0,00, 0,00
89, -26409,84, -24488,50, -12078,73, -23389,54, -10554,69, -4146,78, -21878,83, -20563,36, 0,00, 0,00, 0,00
90, -26417,57, -24490,16, -12054,85, -23388,62, -10546,04, -4141,20, -21859,07, -20562,02, 0,00, 0,00, 0,00
91, -26417,53, -24484,35, -12064,73, -23387,17, -10542,56, -4154,63, -21857,41, -20552,07, 0,00, 0,00, 0,00
92, -26421,82, -24485,35, -12084,22, -23392,24, -10543,18, -4161,09, -21868,77, -20557,57, 0,00, 0,00, 0,00
93, -26417,88, -24486,04, -12084,56, -23396,04, -10541,42, -4139,19, -21867,45, -20576,88, 0,00, 0,00, 0,00
94, -26415,38, -24485,35, -12058,03, -23390,16, -10530,87, -4122,65, -21842,15, -20544,29, 0,00, 0,00, 0,00
95, -26420,45, -24491,19, -12039,95, -23394,56, -10534,11, -4121,30, -21839,06, -20542,08, 0,00, 0,00, 0,00
96, -26414,04, -24489,04, -12052,93, -23398,28, -10543,81, -4142,18, -21865,79, -20575,16, -0,08, 0,97, 0,23
97, -26410,24, -24482,67, -12073,03, -23394,70, -10541,35, -4154,18, -21876,41, -20583,52, 0,00, 0,00, 0,00
98, -26413,32, -24485,51, -12072,83, -23394,54, -10535,79, -4132,26, -21848,40, -20562,22, 0,00, 0,00, 0,00
99, -26407,00, -24480,01, -12060,55, -23389,29, -10533,95, -4129,28, -21844,49, -20536,47, 0,00, 0,00, 0,00
100, -26406,84, -24483,34, -12055,59, -23394,92, -10542,24, -4145,33, -21863,80, -20543,24, 0,00, 0,00, 0,00
101, -26411,87, -24490,56, -12063,28, -23400,58, -10554,09, -4160,17, -21876,28, -20562,67, 0,00, 0,00, 0,00
102, -26411,58, -24487,50, -12060,98, -23400,31, -10555,59, -4145,76, -21876,75, -20553,99, 0,00, 0,00, 0,00
103, -26404,74, -24474,47, -12077,23, -23398,63, -10561,40, -4140,97, -21889,13, -20559,04, 0,00, 0,00, 0,00
104, -26402,95, -24470,78, -12078,03, -23398,79, -10565,85, -4154,61, -21895,05, -20581,17, 0,00, 0,00, 0,00
105, -26405,95, -24471,00, -12070,77, -23396,20, -10563,79, -4171,19, -21882,60, -20582,42, -0,08, 0,97, 0,24
106, -26405,95, -24475,99, -12080,29, -23397,07, -10565,24, -4189,39, -21877,46, -20584,59, 0,00, 0,00, 0,00
107, -26408,23, -24478,04, -12085,10, -23402,12, -10568,44, -4184,67, -21886,36, -20600,95, 0,00, 0,00, 0,00
108, -26409,66, -24487,61, -12090,77, -23400,87, -10572,06, -4167,75, -21899,01, -20593,35, 0,00, 0,00, 0,00
109, -26398,33, -24478,15, -12083,42, -23387,79, -10555,86, -4171,75, -21868,19, -20567,31, 0,00, 0,00, 0,00
110, -26402,19, -24477,26, -12068,00, -23392,29, -10552,95, -4180,69, -21865,41, -20580,61, 0,00, 0,00, 0,00
111, -26404,67, -24482,22, -12085,63, -23395,82, -10557,40, -4205,30, -21886,76, -20598,81, 0,00, 0,00, 0,00
112, -26408,96, -24488,55, -12084,56, -23397,27, -10552,50, -4190,80, -21878,47, -20579,41, 0,00, 0,00, 0,00
113, -26411,09, -24493,18, -12071,08, -23397,96, -10546,04, -4151,41, -21849,92, -20545,21, 0,00, 0,00, 0,00
114, -26414,06, -24490,72, -12067,64, -23398,88, -10548,35, -4155,10, -21842,15, -20550,10, 0,00, 0,00, 0,00
115, -26405,70, -24478,49, -12061,54, -23389,11, -10540,23, -4167,91, -21841,52, -20545,88, -0,08, 0,97, 0,23
116, -26415,80, -24484,66, -12059,95, -23394,10, -10542,87, -4170,14, -21855,85, -20557,93, 0,00, 0,00, 0,00
117, -26422,04, -24485,75, -12083,40, -23398,12, -10550,96, -4179,02, -21890,13, -20590,43, 0,00, 0,00, 0,00
118, -26416,32, -24479,05, -12088,74, -23390,32, -10545,60, -4158,18, -21894,96, -20556,83, 0,00, 0,00, 0,00
119, -26413,84, -24477,64, -12077,94, -23386,16, -10538,27, -4153,80, -21852,88, -20531,22, 0,00, 0,00, 0,00
120, -26408,67, -24482,45, -12069,07, -23382,14, -10531,47, -4161,47, -21829,70, -20532,33, 0,00, 0,00, 0,00
121, -26405,59, -24478,78, -12076,51, -23377,89, -10526,60, -4175,06, -21838,86, -20541,07, 0,00, 0,00, 0,00
122, -26411,69, -24482,74, -12088,36, -23383,43, -10529,06, -4175,75, -21835,29, -20551,56, 0,00, 0,00, 0,00
123, -26409,57, -24482,33, -12085,66, -23384,39, -10533,37, -4150,00, -21843,78, -20544,11, 0,00, 0,00, 0,00
124, -26401,97, -24476,30, -12065,90, -23381,49, -10536,17, -4143,54, -21852,65, -20551,96, 0,00, 0,00, 0,00
125, -26401,83, -24477,35, -12056,28, -23386,79, -10546,16, -4159,08, -21854,69, -20582,13, -0,08, 0,97, 0,23
126, -26395,11, -24474,29, -12077,34, -23382,65, -10548,32, -4189,52, -21854,53, -20574,09, 0,00, 0,00, 0,00
127, -26388,18, -24467,60, -12084,07, -23376,88, -10544,14, -4188,67, -21849,97, -20549,86, 0,00, 0,00, 0,00
128, -26393,92, -24466,91, -12080,27, -23379,07, -10548,62, -4166,61, -21856,14, -20546,88, 0,00, 0,00, 0,00
129, -26398,13, -24469,82, -12063,82, -23382,43, -10553,69, -4163,68, -21859,29, -20562,42, 0,00, 0,00, 0,00
130, -26395,46, -24469,30, -12060,55, -23385,69, -10561,51, -4186,17, -21871,88, -20583,43, 0,00, 0,00, 0,00
131, -26396,69, -24464,68, -12073,67, -23385,73, -10562,41, -4211,38, -21869,55, -20594,47, 0,00, 0,00, 0,00
132, -26402,06, -24469,66, -12096,36, -23389,22, -10564,53, -4224,05, -21875,21, -20601,58, 0,00, 0,00, 0,00
133, -26408,23, -24485,93, -12092,34, -23391,75, -10567,70, -4196,90, -21877,55, -20585,44, 0,00, 0,00, 0,00
134, -26409,41, -24486,25, -12074,90, -23394,25, -10569,89, -4190,21, -21884,84, -20578,89, 0,00, 0,00, 0,00
135, -26410,69, -24482,02, -12059,41, -23396,40, -10567,14, -4193,52, -21876,63, -20574,42, -0,08, 0,97, 0,23
136, -26412,65, -24485,02, -12066,48, -23400,09, -10571,46, -4205,30, -21880,35, -20584,41, 0,00, 0,00, 0,00
137, -26413,64, -24486,76, -12084,56, -23398,90, -10570,16, -4208,23, -21869,55, -20585,98, 0,00, 0,00, 0,00
138, -26409,63, -24484,44, -12097,08, -23394,36, -10565,49, -4193,90, -21848,07, -20559,09, 0,00, 0,00, 0,00
139, -26418,69, -24491,07, -12089,28, -23402,05, -10565,31, -4193,92, -21842,84, -20555,15, 0,00, 0,00, 0,00
140, -26421,33, -24491,23, -12074,72, -23402,59, -10561,71, -4198,80, -21844,40, -20549,66, 0,00, 0,00, 0,00
141, -26419,74, -24486,49, -12064,93, -23403,21, -10562,18, -4195,56, -21858,40, -20547,49, 0,00, 0,00, 0,00
142, -26413,59, -24486,27, -12087,76, -23394,03, -10554,83, -4200,27, -21839,13, -20529,38, 0,00, 0,00, 0,00
143, -26417,44, -24488,71, -12088,58, -23394,83, -10551,01, -4172,96, -21829,36, -20533,88, 0,00, 0,00, 0,00
144, -26419,56, -24481,02, -12093,12, -23393,11, -10551,10, -4186,19, -21844,94, -20558,29, 0,00, 0,00, 0,00
145, -26421,91, -24481,37, -12089,66, -23390,00, -10544,88, -4202,80, -21844,56, -20575,43, -0,09, 0,97, 0,23
146, -26418,96, -24481,11, -12094,68, -23383,97, -10541,13, -4214,29, -21842,93, -20557,32, 0,00, 0,00, 0,00
147, -26413,53, -24480,66, -12121,64, -23379,70, -10540,21, -4230,04, -21856,07, -20549,88, 0,00, 0,00, 0,00
148, -26416,16, -24484,59, -12118,49, -23381,53, -10537,75, -4209,19, -21855,78, -20546,01, 0,00, 0,00, 0,00
149, -26408,74, -24478,74, -12106,58, -23376,84, -10535,29, -4214,51, -21849,52, -20543,42, 0,00, 0,00, 0,00
150, -26405,12, -24480,84, -12085,16, -23375,65, -10533,55, -4221,71, -21844,16, -20546,86, 0,00, 0,00, 0,00
151, -26401,97, -24473,86, -12088,74, -23379,14, -10541,69, -4240,39, -21851,65, -20558,60, 0,00, 0,00, 0,00
152, -26400,16, -24472,25, -12090,17, -23379,07, -10544,14, -4236,10, -21852,72, -20559,11, 0,00, 0,00, 0,00
153, -26396,27, -24467,72, -12090,88, -23377,60, -10547,88, -4217,17, -21856,45, -20563,74, 0,00, 0,00, 0,00
154, -26396,94, -24471,40, -12079,24, -23382,58, -10552,50, -4219,61, -21852,54, -20579,16, 0,00, 0,00, 0,00
155, -26400,02, -24476,41, -12061,60, -23385,15, -10558,27, -4225,87, -21860,65, -20585,69, -0,08, 0,97, 0,23
156, -26393,77, -24475,00, -12070,25, -23379,21, -10558,52, -4242,03, -21872,28, -20585,93, 0,00, 0,00, 0,00
157, -26389,23, -24469,55, -12089,54, -23379,83, -10554,87, -4245,62, -21856,70, -20577,42, 0,00, 0,00, 0,00
158, -26389,36, -24459,33, -12091,00, -23380,51, -10553,42, -4219,14, -21865,73, -20564,86, 0,00, 0,00, 0,00
159, -26394,82, -24463,63, -12088,92, -23379,30, -10553,26, -4222,45, -21868,28, -20545,46, 0,00, 0,00, 0,00
160, -26391,13, -24462,02, -12082,08, -23379,25, -10548,44, -4231,10, -21861,19, -20560,65, 0,00, 0,00, 0,00
161, -26394,46, -24467,47, -12075,02, -23385,15, -10547,12, -4222,38, -21864,10, -20560,59, 0,00, 0,00, 0,00
162, -26399,00, -24471,31, -12078,59, -23387,46, -10544,84, -4206,51, -21855,56, -20543,76, 0,00, 0,00, 0,00
163, -26398,79, -24468,95, -12090,48, -23387,28, -10541,28, -4184,07, -21839,42, -20539,78, 0,00, 0,00, 0,00
164, -26405,25, -24473,51, -12080,94, -23392,93, -10544,61, -4175,24, -21842,30, -20541,86, 0,00, 0,00, 0,00
165, -26406,06, -24476,99, -12070,54, -23399,77, -10546,02, -4177,70, -21859,36, -20556,14, -0,08, 0,97, 0,23
166, -26402,88, -24473,82, -12071,75, -23397,31, -10545,49, -4180,49, -21864,48, -20552,63, 0,00, 0,00, 0,00
167, -26405,97, -24474,62, -12098,37, -23396,64, -10545,73, -4186,28, -21860,05, -20535,73, 0,00, 0,00, 0,00
168, -26415,04, -24483,77, -12088,94, -23401,00, -10541,35, -4148,15, -21841,86, -20527,57, 0,00, 0,00, 0,00
169, -26416,05, -24480,59, -12060,04, -23402,70, -10541,17, -4129,75, -21836,89, -20524,02, 0,00, 0,00, 0,00
170, -26409,32, -24476,52, -12067,15, -23398,65, -10538,62, -4155,66, -21835,75, -20517,09, 0,00, 0,00, 0,00
171, -26411,65, -24476,75, -12074,95, -23404,64, -10539,50, -4170,25, -21842,12, -20522,01, 0,00, 0,00, 0,00
172, -26414,31, -24469,95, -12085,61, -23408,06, -10544,79, -4171,91, -21859,13, -20525,85, 0,00, 0,00, 0,00
173, -26417,73, -24467,80, -12086,57, -23409,83, -10550,72, -4155,44, -21871,05, -20528,33, 0,00, 0,00, 0,00
174, -26420,32, -24467,43, -12079,53, -23413,18, -10562,52, -4163,35, -21885,13, -20551,09, -0,08, 0,97, 0,23
175, -26418,91, -24471,67, -12069,54, -23415,20, -10564,78, -4177,65, -21884,79, -20554,17, 0,00, 0,00, 0,00
176, -26413,48, -24475,81, -12081,54, -23414,86, -10564,71, -4197,86, -21877,82, -20564,41, 0,00, 0,00, 0,00
177, -26408,23, -24467,60, -12103,00, -23412,58, -10562,81, -4211,72, -21861,62, -20575,85, 0,00, 0,00, 0,00
178, -26409,19, -24462,35, -12096,61, -23407,55, -10561,67, -4185,65, -21858,93, -20584,75, 0,00, 0,00, 0,00
179, -26404,45, -24458,02, -12087,53, -23398,79, -10563,34, -4183,24, -21880,61, -20570,00, 0,00, 0,00, 0,00
180, -26402,80, -24453,12, -12078,61, -23398,50, -10560,98, -4193,34, -21863,11, -20566,76, 0,00, 0,00, 0,00
181, -26409,90, -24467,49, -12061,29, -23405,16, -10557,44, -4182,61, -21850,06, -20563,87, 0,00, 0,00, 0,00
182, -26410,98, -24470,04, -12066,90, -23409,70, -10566,18, -4174,23, -21876,84, -20574,04, 0,00, 0,00, 0,00
183, -26408,34, -24466,91, -12073,21, -23404,29, -10562,23, -4150,81, -21878,02, -20556,23, 0,00, 0,00, 0,00
184, -26403,49, -24467,49, -12046,72, -23397,98, -10548,79, -4125,44, -21845,74, -20521,31, -0,08, 0,97, 0,24
185, -26406,28, -24464,25, -12036,10, -23393,42, -10544,41, -4125,48, -21837,70, -20513,58, 0,00, 0,00, 0,00
186, -26404,07, -24457,81, -12066,54, -23391,26, -10544,17, -4153,42, -21847,47, -20527,15, 0,00, 0,00, 0,00
187, -26405,99, -24460,12, -12084,67, -23394,25, -10545,58, -4151,50, -21860,27, -20535,66, 0,00, 0,00, 0,00
188, -26413,08, -24463,04, -12085,50, -23395,26, -10542,69, -4122,04, -21857,46, -20536,09, 0,00, 0,00, 0,00
189, -26417,66, -24464,68, -12080,54, -23394,83, -10544,01, -4123,40, -21864,39, -20543,96, 0,00, 0,00, 0,00
190, -26415,42, -24471,61, -12051,52, -23390,07, -10529,28, -4114,26, -21839,24, -20525,81, 0,00, 0,00, 0,00
191, -26413,35, -24479,34, -12047,46, -23390,18, -10520,92, -4112,45, -21814,59, -20509,94, 0,00, 0,00, 0,00
192, -26407,89, -24474,02, -12087,08, -23385,53, -10523,51, -4134,20, -21835,64, -20500,46, 0,00, 0,00, 0,00
193, -26408,56, -24470,58, -12106,08, -23386,32, -10523,85, -4124,77, -21844,38, -20504,21, 0,00, 0,00, 0,00
194, -26413,41, -24472,90, -12078,77, -23386,16, -10521,28, -4107,51, -21823,21, -20509,89, -0,09, 0,98, 0,25
195, -26414,29, -24477,73, -12073,25, -23387,41, -10529,37, -4122,87, -21832,15, -20519,10, 0,00, 0,00, 0,00
196, -26412,52, -24479,88, -12072,18, -23391,32, -10535,70, -4129,75, -21837,92, -20533,90, 0,00, 0,00, 0,00
197, -26412,79, -24475,20, -12085,27, -23390,74, -10539,38, -4130,24, -21830,03, -20537,30, 0,00, 0,00, 0,00
198, -26413,84, -24471,05, -12086,55, -23396,84, -10552,73, -4108,45, -21854,84, -20545,19, 0,00, 0,00, 0,00
199, -26415,87, -24478,74, -12077,00, -23401,85, -10567,01, -4110,40, -21882,63, -20570,02, 0,00, 0,00, 0,00
200, -26405,25, -24469,15, -12081,99, -23389,83, -10564,48, -4134,02, -21873,13, -20547,58, 0,00, 0,00, 0,00
201, -26404,09, -24463,67, -12087,31, -23387,54, -10561,80, -4145,02, -21862,24, -20524,04, 0,00, 0,00, 0,00
202, -26410,96, -24471,94, -12096,00, -23393,80, -10570,97, -4142,16, -21875,36, -20539,98, 0,00, 0,00, 0,00
203, -26419,81, -24483,23, -12099,02, -23400,33, -10581,11, -4123,16, -21890,83, -20575,03, 0,00, 0,00, 0,00
204, -26422,38, -24488,21, -12101,93, -23404,78, -10585,92, -4137,75, -21872,28, -20596,39, -0,08, 0,98, 0,24
205, -26422,35, -24486,54, -12090,93, -23399,12, -10580,62, -4148,68, -21863,27, -20564,21, 0,00, 0,00, 0,00
206, -26416,54, -24478,09, -12091,82, -23393,94, -10580,40, -4154,34, -21869,17, -20547,11, 0,00, 0,00, 0,00
207, -26415,54, -24476,54, -12083,15, -23394,16, -10576,42, -4132,73, -21858,80, -20543,42, 0,00, 0,00, 0,00
208, -26415,94, -24476,99, -12081,43, -23391,41, -10573,18, -4105,68, -21849,03, -20533,79, 0,00, 0,00, 0,00
209, -26416,10, -24476,37, -12069,23, -23391,61, -10568,66, -4103,87, -21842,62, -20540,63, 0,00, 0,00, 0,00
210, -26415,34, -24477,26, -12058,07, -23394,43, -10566,88, -4112,52, -21855,15, -20538,68, 0,00, 0,00, 0,00
211, -26415,11, -24478,11, -12068,53, -23396,40, -10568,55, -4127,96, -21876,30, -20536,83, 0,00, 0,00, 0,00
212, -26411,67, -24472,50, -12093,92, -23392,57, -10559,43, -4140,97, -21864,97, -20546,04, 0,00, 0,00, 0,00
213, -26414,60, -24472,50, -12099,60, -23392,53, -10551,16, -4119,90, -21838,97, -20548,72, 0,00, 0,00, 0,00
214, -26409,05, -24467,69, -12089,99, -23384,57, -10543,76, -4117,46, -21832,38, -20543,20, -0,08, 0,98, 0,23
215, -26400,61, -24457,05, -12074,17, -23378,40, -10536,88, -4120,99, -21847,20, -20528,45, 0,00, 0,00, 0,00
216, -26401,14, -24456,36, -12072,09, -23376,44, -10530,98, -4126,51, -21841,14, -20529,12, 0,00, 0,00, 0,00
217, -26401,21, -24464,25, -12082,88, -23373,42, -10526,62, -4126,38, -21828,69, -20512,40, 0,00, 0,00, 0,00
218, -26400,18, -24457,03, -12090,08, -23372,48, -10524,92, -4113,73, -21821,96, -20520,29, 0,00, 0,00, 0,00
219, -26395,91, -24457,03, -12080,13, -23370,36, -10528,83, -4115,05, -21837,03, -20527,55, 0,00, 0,00, 0,00
220, -26398,28, -24461,86, -12047,95, -23373,89, -10532,39, -4110,06, -21840,54, -20535,93, 0,00, 0,00, 0,00
221, -26392,11, -24451,94, -12055,26, -23375,05, -10540,90, -4134,38, -21828,45, -20567,45, 0,00, 0,00, 0,00
222, -26385,16, -24446,19, -12066,83, -23371,03, -10543,61, -4139,45, -21832,27, -20548,27, 0,00, 0,00, 0,00
223, -26386,90, -24450,57, -12059,55, -23374,49, -10552,35, -4112,85, -21853,34, -20533,12, 0,00, 0,00, 0,00
224, -26387,08, -24451,51, -12044,33, -23374,83, -10557,22, -4110,31, -21857,64, -20538,08, -0,09, 0,98, 0,23
225, -26385,94, -24452,81, -12033,37, -23379,16, -10565,31, -4118,22, -21867,18, -20552,94, 0,00, 0,00, 0,00
226, -26382,81, -24446,44, -12049,24, -23383,72, -10574,14, -4135,05, -21878,60, -20565,39, 0,00, 0,00, 0,00
227, -26385,96, -24444,36, -12071,48, -23385,20, -10578,03, -4139,90, -21876,32, -20555,74, 0,00, 0,00, 0,00
228, -26387,84, -24443,73, -12085,86, -23386,23, -10579,35, -4123,49, -21879,41, -20555,22, 0,00, 0,00, 0,00
229, -26378,50, -24435,91, -12081,50, -23385,65, -10573,54, -4125,42, -21857,37, -20561,12, 0,00, 0,00, 0,00
230, -26373,02, -24429,99, -12068,09, -23387,66, -10577,45, -4131,47, -21870,33, -20550,51, 0,00, 0,00, 0,00
231, -26379,33, -24441,16, -12067,19, -23386,43, -10576,55, -4136,39, -21870,38, -20555,13, 0,00, 0,00, 0,00
232, -26380,89, -24448,07, -12086,19, -23383,41, -10573,67, -4143,10, -21855,83, -20556,50, 0,00, 0,00, 0,00
233, -26390,12, -24449,10, -12074,72, -23384,33, -10566,25, -4110,51, -21855,00, -20536,45, 0,00, 0,00, 0,00
234, -26394,30, -24453,95, -12047,57, -23390,68, -10566,99, -4094,59, -21859,98, -20543,26, -0,09, 0,99, 0,23
235, -26388,56, -24451,67, -12040,26, -23384,84, -10560,80, -4108,47, -21863,18, -20539,15, 0,00, 0,00, 0,00
236, -26385,96, -24444,29, -12035,63, -23379,95, -10551,05, -4110,35, -21854,95, -20534,75, 0,00, 0,00, 0,00
237, -26385,81, -24442,39, -12059,93, -23375,32, -10541,04, -4122,58, -21837,47, -20535,60, 0,00, 0,00, 0,00
238, -26387,64, -24441,34, -12060,91, -23371,70, -10530,71, -4105,08, -21830,34, -20529,63, 0,00, 0,00, 0,00
239, -26389,34, -24443,33, -12058,48, -23374,45, -10534,31, -4116,54, -21852,94, -20544,34, 0,00, 0,00, 0,00
240, -26386,99, -24447,06, -12042,78, -23371,01, -10532,03, -4126,94, -21869,91, -20553,37, 0,00, 0,00, 0,00
241, -26386,68, -24444,29, -12037,89, -23367,27, -10528,92, -4133,28, -21861,95, -20557,41, 0,00, 0,00, 0,00
242, -26392,96, -24446,19, -12031,79, -23364,81, -10517,25, -4117,79, -21811,46, -20550,53, 0,00, 0,00, 0,00
243, -26394,64, -24449,66, -12031,07, -23362,98, -10520,56, -4095,44, -21829,65, -20552,29, 0,00, 0,00, 0,00
244, -26389,01, -24447,64, -12033,49, -23355,92, -10521,23, -4110,98, -21852,36, -20545,97, -0,08, 0,98, 0,23
245, -26397,05, -24459,69, -12014,78, -23366,67, -10529,64, -4116,32, -21861,68, -20547,58, 0,00, 0,00, 0,00
246, -26394,71, -24461,79, -12039,19, -23369,24, -10534,53, -4144,15, -21858,13, -20551,38, 0,00, 0,00, 0,00
247, -26401,81, -24465,68, -12054,79, -23373,67, -10536,21, -4142,72, -21850,19, -20557,37, 0,00, 0,00, 0,00
248, -26406,17, -24469,26, -12047,92, -23379,19, -10542,04, -4109,41, -21862,71, -20566,42, 0,00, 0,00, 0,00
249, -26402,82, -24472,16, -12032,75, -23381,98, -10544,41, -4099,76, -21866,51, -20538,32, 0,00, 0,00, 0,00
250, -26404,00, -24473,62, -12028,72, -23389,96, -10551,95, -4108,00, -21864,23, -20519,93, 0,00, 0,00, 0,00
251, -26407,94, -24473,66, -12045,69, -23395,50, -10563,99, -4126,22, -21876,05, -20535,66, 0,00, 0,00, 0,00
252, -26413,44, -24484,14, -12050,99, -23402,88, -10569,69, -4113,91, -21884,55, -20523,79, 0,00, 0,00, 0,00
253, -26408,79, -24479,41, -12074,43, -23400,93, -10574,57, -4109,86, -21887,65, -20530,88, -0,09, 0,97, 0,23
254, -26402,80, -24478,76, -12081,25, -23397,45, -10573,34, -4125,30, -21879,25, -20541,30, 0,00, 0,00, 0,00
255, -26413,48, -24481,55, -12061,43, -23402,99, -10572,22, -4128,68, -21865,12, -20552,88, 0,00, 0,00, 0,00
0, -26416,34, -24484,77, -12044,46, -23406,16, -10570,27, -4121,13, -21847,20, -20549,68, 0,00, 0,00, 0,00
1, -26415,00, -24488,23, -12073,32, -23403,08, -10572,69, -4136,77, -21865,30, -20550,06, 0,00, 0,00, 0,00
2, -26414,58, -24486,56, -12082,32, -23398,34, -10569,87, -4120,41, -21892,08, -20541,01, 0,00, 0,00, 0,00
3, -26409,52, -24472,12, -12061,81, -23393,09, -10562,16, -4110,40, -21871,09, -20538,50, 0,00, 0,00, 0,00
4, -26408,27, -24468,12, -12026,49, -23386,79, -10549,06, -4100,02, -21824,15, -20532,38, 0,00, 0,00, 0,00
5, -26405,54, -24474,40, -12022,00, -23378,07, -10542,85, -4104,76, -21822,81, -20525,29, 0,00, 0,00, 0,00
6, -26401,37, -24471,96, -12039,19, -23371,97, -10541,26, -4109,52, -21837,47, -20533,00, 0,00, 0,00, 0,00
7, -26394,21, -24465,91, -12037,91, -23371,07, -10540,46, -4085,07, -21856,56, -20557,73, -0,09, 0,97, 0,23
8, -26391,58, -24460,18, -12021,35, -23366,65, -10539,96, -4080,00, -21854,53, -20546,91, 0,00, 0,00, 0,00
9, -26387,87, -24449,43, -12019,92, -23358,49, -10532,68, -4099,44, -21832,11, -20522,75, 0,00, 0,00, 0,00
10, -26389,85, -24451,11, -12014,91, -23360,84, -10531,47, -4099,85, -21822,83, -20528,13, 0,00, 0,00, 0,00
11, -26380,40, -24443,22, -12037,53, -23355,14, -10535,54, -4108,79, -21840,51, -20537,21, 0,00, 0,00, 0,00
12, -26383,06, -24438,30, -12044,17, -23349,44, -10536,17, -4084,92, -21851,47, -20516,64, 0,00, 0,00, 0,00
13, -26383,42, -24438,70, -12021,68, -23346,93, -10533,62, -4065,47, -21845,72, -20499,59, 0,00, 0,00, 0,00
14, -26385,88, -24440,60, -12006,28, -23349,17, -10534,85, -4067,32, -21844,49, -20514,07, 0,00, 0,00, 0,00
15, -26389,45, -24449,21, -12021,50, -23358,51, -10545,08, -4084,69, -21861,30, -20550,66, 0,00, 0,00, 0,00
16, -26382,63, -24443,67, -12038,29, -23351,25, -10538,02, -4085,18, -21854,82, -20534,12, 0,00, 0,00, 0,00
17, -26392,09, -24444,92, -12038,18, -23357,77, -10542,51, -4057,18, -21870,04, -20507,30, -0,09, 0,97, 0,23
18, -26397,99, -24441,03, -12033,11, -23367,32, -10555,05, -4057,69, -21882,92, -20525,25, 0,00, 0,00, 0,00
19, -26395,71, -24440,65, -12030,20, -23368,59, -10554,29, -4073,92, -21870,49, -20533,96, 0,00, 0,00, 0,00
20, -26401,61, -24451,15, -12016,50, -23371,47, -10555,77, -4070,05, -21865,35, -20546,59, 0,00, 0,00, 0,00
21, -26403,89, -24452,52, -12033,60, -23370,13, -10558,34, -4072,42, -21864,21, -20544,76, 0,00, 0,00, 0,00
22, -26402,97, -24451,18, -12045,04, -23374,02, -10561,06, -4058,79, -21864,54, -20534,21, 0,00, 0,00, 0,00
23, -26396,72, -24444,92, -12049,02, -23371,01, -10557,94, -4072,38, -21844,85, -20528,87, 0,00, 0,00, 0,00
24, -26396,56, -24447,96, -12043,66, -23370,51, -10555,25, -4089,12, -21835,96, -20541,97, 0,00, 0,00, 0,00
25, -26401,05, -24456,32, -12040,71, -23376,57, -10558,52, -4097,03, -21851,27, -20551,15, 0,00, 0,00, 0,00
26, -26400,58, -24449,14, -12052,22, -23378,29, -10563,41, -4097,83, -21884,57, -20538,10, 0,00, 0,00, 0,00
27, -26401,41, -24449,05, -12060,06, -23381,33, -10565,65, -4083,53, -21884,73, -20529,85, -0,08, 0,98, 0,23
28, -26398,17, -24447,89, -12069,14, -23379,52, -10565,27, -4106,93, -21863,85, -20543,26, 0,00, 0,00, 0,00
29, -26397,81, -24455,20, -12057,25, -23383,54, -10562,36, -4121,33, -21854,95, -20560,05, 0,00, 0,00, 0,00
30, -26395,96, -24452,40, -12052,08, -23382,58, -10567,82, -4124,48, -21870,27, -20558,62, 0,00, 0,00, 0,00
31, -26394,08, -24450,84, -12072,85, -23380,68, -10573,69, -4132,97, -21887,52, -20570,94, 0,00, 0,00, 0,00
32, -26394,71, -24450,33, -12073,05, -23381,24, -10569,33, -4113,26, -21871,63, -20574,53, 0,00, 0,00, 0,00
33, -26399,53, -24452,61, -12057,80, -23384,17, -10570,88, -4110,37, -21858,64, -20560,81, 0,00, 0,00, 0,00
34, -26396,27, -24449,83, -12046,16, -23378,83, -10568,26, -4119,18, -21853,84, -20545,30, 0,00, 0,00, 0,00
35, -26399,62, -24448,96, -12047,30, -23375,30, -10564,37, -4125,77, -21841,56, -20537,18, 0,00, 0,00, 0,00
36, -26395,15, -24456,63, -12059,24, -23374,20, -10559,50, -4130,09, -21837,34, -20552,32, 0,00, 0,00, 0,00
37, -26399,69, -24464,95, -12063,91, -23375,36, -10560,66, -4114,89, -21849,88, -20549,95, -0,08, 0,98, 0,23
38, -26399,76, -24464,92, -12045,11, -23376,37, -10562,34, -4108,23, -21860,21, -20540,72, 0,00, 0,00, 0,00
39, -26401,81, -24464,97, -12035,18, -23376,95, -10563,05, -4123,02, -21868,74, -20537,38, 0,00, 0,00, 0,00
40, -26403,47, -24470,67, -12024,97, -23377,85, -10561,98, -4120,52, -21862,89, -20525,58, 0,00, 0,00, 0,00
41, -26404,92, -24476,10, -12033,22, -23383,88, -10567,61, -4118,00, -21859,65, -20539,26, 0,00, 0,00, 0,00
42, -26409,50, -24476,90, -12041,60, -23390,16, -10572,53, -4100,56, -21856,43, -20553,14, 0,00, 0,00, 0,00
43, -26408,56, -24474,80, -12045,51, -23389,89, -10573,29, -4110,80, -21854,19, -20543,87, 0,00, 0,00, 0,00
44, -26410,73, -24476,25, -12028,90, -23392,60, -10572,42, -4114,73, -21872,88, -20532,20, 0,00, 0,00, 0,00
45, -26406,78, -24474,13, -12016,14, -23390,12, -10563,55, -4111,27, -21856,36, -20524,04, 0,00, 0,00, 0,00
46, -26406,06, -24478,33, -12025,13, -23385,71, -10561,38, -4111,29, -21840,87, -20525,70, 0,00, 0,00, 0,00
47, -26404,43, -24475,14, -12040,12, -23383,52, -10563,43, -4102,46, -21847,18, -20532,31, -0,09, 0,98, 0,24
48, -26400,85, -24472,23, -12028,97, -23382,07, -10558,90, -4103,09, -21846,19, -20518,90, 0,00, 0,00, 0,00
49, -26398,46, -24471,72, -12023,36, -23381,96, -10554,72, -4119,07, -21841,88, -20522,95, 0,00, 0,00, 0,00
50, -26401,14, -24471,38, -12027,45, -23382,36, -10554,99, -4131,85, -21854,35, -20524,51, 0,00, 0,00, 0,00
51, -26401,95, -24478,71, -12041,49, -23389,22, -10564,42, -4133,11, -21874,45, -20542,30, 0,00, 0,00, 0,00
52, -26394,41, -24480,95, -12047,81, -23391,08, -10570,92, -4114,44, -21862,62, -20558,37, 0,00, 0,00, 0,00
53, -26387,82, -24472,41, -12041,04, -23390,70, -10577,87, -4119,18, -21858,35, -20575,14, 0,00, 0,00, 0,00
54, -26383,48, -24454,28, -12032,86, -23387,26, -10579,33, -4132,73, -21860,14, -20581,57, 0,00, 0,00, 0,00
55, -26379,77, -24447,98, -12027,05, -23384,71, -10576,11, -4135,52, -21864,19, -20560,97, 0,00, 0,00, 0,00
56, -26376,33, -24450,04, -12056,13, -23378,90, -10579,88, -4150,38, -21869,19, -20542,59, 0,00, 0,00, 0,00
57, -26372,49, -24449,41, -12074,97, -23374,04, -10578,88, -4144,08, -21863,89, -20541,43, -0,09, 0,97, 0,24
58, -26374,43, -24449,95, -12060,15, -23377,38, -10582,23, -4141,11, -21878,87, -20568,07, 0,00, 0,00, 0,00
59, -26373,22, -24448,34, -12035,97, -23378,38, -10585,92, -4144,21, -21897,65, -20583,32, 0,00, 0,00, 0,00
60, -26377,72, -24451,02, -12036,66, -23381,85, -10589,03, -4154,99, -21890,00, -20589,51, 0,00, 0,00, 0,00
61, -26373,58, -24451,73, -12050,27, -23374,92, -10579,53, -4159,21, -21859,13, -20555,83, 0,00, 0,00, 0,00
62, -26385,47, -24460,38, -12035,36, -23378,20, -10575,33, -4119,52, -21844,38, -20533,76, 0,00, 0,00, 0,00
63, -26393,32, -24463,58, -12027,29, -23384,46, -10583,91, -4118,20, -21854,84, -20550,82, 0,00, 0,00, 0,00
64, -26392,25, -24461,12, -12022,42, -23379,95, -10580,40, -4137,78, -21865,08, -20557,57, 0,00, 0,00, 0,00
65, -26391,49, -24460,77, -12026,51, -23376,62, -10574,52, -4153,18, -21857,23, -20552,81, 0,00, 0,00, 0,00
66, -26388,16, -24459,22, -12037,06, -23378,85, -10574,54, -4153,71, -21860,94, -20548,25, -0,09, 0,97, 0,24
67, -26387,13, -24460,38, -12054,12, -23379,14, -10576,31, -4143,86, -21873,51, -20541,07, 0,00, 0,00, 0,00
68, -26399,31, -24468,32, -12040,68, -23387,77, -10574,81, -4139,95, -21850,89, -20556,85, 0,00, 0,00, 0,00
69, -26405,19, -24472,46, -12041,42, -23393,49, -10580,18, -4164,04, -21852,83, -20587,99, 0,00, 0,00, 0,00
70, -26401,95, -24469,28, -12049,11, -23388,57, -10576,89, -4176,54, -21857,81, -20549,39, 0,00, 0,00, 0,00
71, -26398,88, -24472,61, -12070,30, -23380,30, -10567,43, -4182,57, -21844,22, -20512,89, 0,00, 0,00, 0,00
72, -26399,67, -24479,43, -12075,22, -23379,68, -10562,70, -4161,83, -21835,78, -20526,54, 0,00, 0,00, 0,00
73, -26405,12, -24480,90, -12049,60, -23384,08, -10560,44, -4146,52, -21837,36, -20539,11, 0,00, 0,00, 0,00
74, -26404,00, -24481,51, -12045,71, -23387,63, -10568,89, -4167,39, -21870,38, -20558,62, 0,00, 0,00, 0,00
75, -26403,47, -24480,61, -12045,40, -23386,79, -10571,12, -4175,15, -21878,67, -20552,92, 0,00, 0,00, 0,00
76, -26397,90, -24475,14, -12053,00, -23379,70, -10567,30, -4170,19, -21847,55, -20544,49, -0,08, 0,98, 0,23
77, -26399,29, -24475,03, -12068,38, -23382,00, -10574,50, -4163,84, -21847,96, -20568,23, 0,00, 0,00, 0,00
78, -26403,71, -24476,99, -12048,13, -23384,04, -10578,54, -4155,55, -21853,81, -20573,91, 0,00, 0,00, 0,00
79, -26405,86, -24471,74, -12020,90, -23385,31, -10584,22, -4155,41, -21858,26, -20562,17, 0,00, 0,00, 0,00
80, -26396,16, -24465,73, -12029,73, -23376,55, -10581,36, -4173,56, -21860,43, -20540,02, 0,00, 0,00, 0,00
81, -26398,75, -24470,71, -12042,40, -23375,10, -10581,34, -4173,09, -21854,66, -20546,66, 0,00, 0,00, 0,00
82, -26397,32, -24468,07, -12063,57, -23369,75, -10581,52, -4171,15, -21855,24, -20547,69, 0,00, 0,00, 0,00
83, -26401,52, -24471,34, -12061,00, -23372,08, -10585,56, -4179,22, -21871,67, -20543,29, 0,00, 0,00, 0,00
84, -26398,50, -24469,82, -12044,35, -23375,48, -10585,27, -4184,72, -21871,09, -20546,64, 0,00, 0,00, 0,00
85, -26391,87, -24466,84, -12042,54, -23373,35, -10582,97, -4192,61, -21871,43, -20562,73, 0,00, 0,00, 0,00
86, -26393,25, -24472,52, -12050,32, -23376,48, -10584,42, -4190,44, -21862,53, -20576,95, -0,08, 0,98, 0,23
87, -26392,67, -24466,62, -12064,00, -23371,97, -10582,37, -4178,39, -21850,08, -20565,93, 0,00, 0,00, 0,00
88, -26400,16, -24466,93, -12041,02, -23372,46, -10579,44, -4161,87, -21840,25, -20535,42, 0,00, 0,00, 0,00
89, -26397,14, -24468,59, -12021,73, -23373,96, -10579,91, -4161,81, -21846,30, -20527,10, 0,00, 0,00, 0,00
90, -26399,96, -24469,62, -12026,18, -23383,19, -10589,14, -4173,12, -21861,75, -20543,87, 0,00, 0,00, 0,00
91, -26402,17, -24465,15, -12050,74, -23387,88, -10598,28, -4184,07, -21875,72, -20557,03, 0,00, 0,00, 0,00
92, -26396,54, -24458,75, -12043,92, -23374,09, -10580,73, -4154,32, -21839,55, -20554,13, 0,00, 0,00, 0,00
93, -26400,54, -24461,32, -12050,81, -23372,55, -10583,51, -4168,18, -21835,89, -20555,20, 0,00, 0,00, 0,00
94, -26407,58, -24472,05, -12041,96, -23379,79, -10585,14, -4178,97, -21834,39, -20529,50, 0,00, 0,00, 0,00
95, -26410,69, -24471,14, -12026,09, -23382,07, -10583,75, -4171,39, -21837,52, -20528,58, 0,00, 0,00, 0,00
96, -26405,39, -24468,95, -12037,53, -23380,10, -10588,31, -4172,87, -21867,65, -20552,72, -0,08, 0,97, 0,23
97, -26399,67, -24467,72, -12058,01, -23372,59, -10586,90, -4167,75, -21861,23, -20556,00, 0,00, 0,00, 0,00
98, -26410,62, -24471,56, -12039,57, -23372,50, -10577,34, -4158,23, -21832,78, -20539,89, 0,00, 0,00, 0,00
99, -26420,65, -24478,31, -12013,50, -23382,74, -10582,34, -4157,49, -21836,74, -20544,47, 0,00, 0,00, 0,00
100, -26415,94, -24475,96, -12018,49, -23376,48, -10584,94, -4169,14, -21851,22, -20535,17, 0,00, 0,00, 0,00
101, -26421,08, -24490,96, -12039,63, -23378,85, -10589,74, -4176,58, -21867,94, -20536,65, 0,00, 0,00, 0,00
102, -26422,13, -24493,87, -12056,55, -23380,13, -10590,97, -4170,70, -21872,95, -20554,37, 0,00, 0,00, 0,00
103, -26413,10, -24478,06, -12050,07, -23376,26, -10583,98, -4177,27, -21855,47, -20556,16, 0,00, 0,00, 0,00
104, -26414,84, -24479,05, -12032,39, -23378,52, -10577,85, -4181,59, -21842,15, -20537,65, 0,00, 0,00, 0,00
105, -26417,91, -24485,93, -12025,95, -23386,03, -10582,01, -4180,49, -21842,82, -20543,94, 0,00, 0,00, 0,00
106, -26404,34, -24478,65, -12066,19, -23379,52, -10584,24, -4206,80, -21849,66, -20548,90, -0,09, 0,97, 0,22
107, -26405,28, -24472,70, -12076,18, -23375,99, -10581,58, -4191,29, -21847,89, -20541,01, 0,00, 0,00, 0,00
108, -26412,79, -24474,62, -12051,79, -23387,61, -10587,95, -4175,75, -21863,40, -20560,59, 0,00, 0,00, 0,00
109, -26414,71, -24477,04, -12033,96, -23395,26, -10593,68, -4178,28, -21867,47, -20567,98, 0,00, 0,00, 0,00
110, -26410,96, -24479,99, -12033,20, -23392,04, -10587,93, -4180,04, -21867,38, -20535,60, 0,00, 0,00, 0,00
111, -26410,28, -24479,94, -12057,56, -23390,21, -10585,81, -4185,99, -21872,32, -20519,50, 0,00, 0,00, 0,00
112, -26408,61, -24477,82, -12071,75, -23386,23, -10583,89, -4173,12, -21854,19, -20522,95, 0,00, 0,00, 0,00
113, -26407,58, -24474,76, -12063,50, -23389,76, -10589,25, -4168,20, -21860,86, -20531,80, 0,00, 0,00, 0,00
114, -26409,52, -24471,34, -12049,07, -23395,73, -10597,34, -4170,66, -21887,03, -20541,23, 0,00, 0,00, 0,00
115, -26418,46, -24478,40, -12036,79, -23398,43, -10595,44, -4162,14, -21869,46, -20528,76, 0,00, 0,00, 0,00
116, -26421,17, -24486,00, -12056,78, -23403,06, -10595,64, -4170,10, -21861,10, -20537,77, -0,08, 0,96, 0,23
117, -26426,71, -24487,47, -12071,04, -23409,14, -10596,87, -4158,88, -21856,34, -20551,38, 0,00, 0,00, 0,00
118, -26424,43, -24486,25, -12051,37, -23408,78, -10594,03, -4146,94, -21849,75, -20536,83, 0,00, 0,00, 0,00
119, -26426,53, -24487,36, -12033,96, -23408,80, -10591,53, -4150,41, -21845,16, -20533,38, 0,00, 0,00, 0,00
120, -26422,96, -24486,04, -12041,20, -23410,46, -10592,11, -4163,66, -21848,85, -20533,07, 0,00, 0,00, 0,00
121, -26421,88, -24479,25, -12064,38, -23409,03, -10596,11, -4174,55, -21867,11, -20535,53, 0,00, 0,00, 0,00
122, -26426,04, -24479,07, -12057,78, -23406,25, -10592,85, -4143,52, -21869,10, -20537,68, 0,00, 0,00, 0,00
123, -26423,00, -24480,46, -12045,33, -23410,37, -10597,16, -4138,85, -21873,10, -20565,33, 0,00, 0,00, 0,00
124, -26420,59, -24474,47, -12036,12, -23407,66, -10594,19, -4149,62, -21871,54, -20559,87, 0,00, 0,00, 0,00
125, -26420,03, -24473,51, -12018,09, -23406,57, -10585,18, -4137,62, -21847,76, -20529,99, 0,00, 0,00, 0,00
126, -26421,04, -24472,16, -12035,88, -23409,25, -10588,45, -4143,83, -21842,41, -20528,18, -0,08, 0,97, 0,23
127, -26422,96, -24476,72, -12055,59, -23410,14, -10593,43, -4138,00, -21853,10, -20539,24, 0,00, 0,00, 0,00
128, -26421,41, -24477,21, -12054,29, -23409,81, -10598,06, -4140,57, -21871,47, -20551,02, 0,00, 0,00, 0,00
129, -26424,30, -24475,67, -12043,63, -23411,15, -10599,31, -4148,04, -21875,90, -20550,24, 0,00, 0,00, 0,00
130, -26426,33, -24475,52, -12054,56, -23412,94, -10604,72, -4162,61, -21896,77, -20561,44, 0,00, 0,00, 0,00
131, -26428,81, -24480,30, -12056,17, -23415,49, -10602,17, -4154,38, -21878,87, -20561,62, 0,00, 0,00, 0,00
132, -26431,21, -24486,69, -12054,90, -23420,29, -10604,43, -4127,61, -21867,09, -20555,47, 0,00, 0,00, 0,00
133, -26430,91, -24485,96, -12051,66, -23417,68, -10603,62, -4129,19, -21866,58, -20543,55, 0,00, 0,00, 0,00
134, -26423,81, -24483,00, -12040,82, -23411,91, -10596,89, -4137,78, -21857,23, -20538,79, 0,00, 0,00, 0,00
135, -26420,90, -24480,68, -12037,96, -23411,31, -10596,27, -4137,55, -21860,21, -20524,73, -0,08, 0,97, 0,24
136, -26421,66, -24476,03, -12059,97, -23409,58, -10601,03, -4143,70, -21882,00, -20525,99, 0,00, 0,00, 0,00
137, -26423,54, -24476,86, -12059,66, -23410,12, -10602,30, -4111,47, -21885,04, -20529,79, 0,00, 0,00, 0,00
138, -26427,52, -24485,44, -12042,40, -23413,50, -10601,10, -4098,26, -21866,87, -20535,49, 0,00, 0,00, 0,00
139, -26426,15, -24483,50, -12033,40, -23411,24, -10599,96, -4107,29, -21877,10, -20539,35, 0,00, 0,00, 0,00
140, -26432,41, -24478,27, -12045,00, -23408,40, -10595,78, -4122,56, -21855,69, -20537,27, 0,00, 0,00, 0,00
141, -26438,07, -24487,59, -12046,58, -23409,05, -10591,49, -4108,74, -21844,40, -20529,21, 0,00, 0,00, 0,00
142, -26442,60, -24495,59, -12064,40, -23410,77, -10598,55, -4099,09, -21866,69, -20549,86, 0,00, 0,00, 0,00
143, -26443,43, -24491,88, -12059,24, -23408,56, -10599,00, -4098,01, -21876,68, -20552,79, 0,00, 0,00, 0,00
144, -26443,95, -24497,58, -12035,63, -23407,84, -10592,87, -4092,92, -21869,91, -20540,34, 0,00, 0,00, 0,00
145, -26446,49, -24499,10, -12042,02, -23408,22, -10594,41, -4103,11, -21864,05, -20534,59, -0,09, 0,97, 0,24
146, -26444,06, -24499,52, -12071,68, -23410,12, -10600,87, -4121,80, -21880,95, -20541,28, 0,00, 0,00, 0,00
147, -26435,45, -24495,70, -12081,94, -23405,16, -10599,35, -4106,48, -21890,18, -20534,86, 0,00, 0,00, 0,00
148, -26444,59, -24500,69, -12066,34, -23406,32, -10603,60, -4094,93, -21907,21, -20538,35, 0,00, 0,00, 0,00
149, -26446,63, -24495,16, -12073,54, -23405,99, -10611,42, -4120,48, -21923,30, -20560,14, 0,00, 0,00, 0,00
150, -26436,88, -24489,26, -12081,43, -23399,24, -10598,91, -4138,56, -21877,66, -20560,21, 0,00, 0,00, 0,00
151, -26442,45, -24490,16, -12105,84, -23404,24, -10604,16, -4154,76, -21891,43, -20565,93, 0,00, 0,00, 0,00
152, -26445,38, -24496,01, -12087,08, -23404,15, -10594,03, -4113,35, -21862,51, -20539,38, 0,00, 0,00, 0,00
153, -26441,26, -24499,01, -12052,60, -23400,76, -10587,15, -4086,32, -21833,27, -20510,03, 0,00, 0,00, 0,00
154, -26439,47, -24495,16, -12046,56, -23401,38, -10592,54, -4100,16, -21838,93, -20526,21, 0,00, 0,00, 0,00
155, -26436,08, -24486,98, -12064,04, -23395,46, -10587,04, -4126,65, -21838,01, -20527,37, -0,08, 0,97, 0,23
156, -26437,64, -24485,53, -12072,15, -23393,58, -10583,01, -4124,70, -21824,82, -20512,80, 0,00, 0,00, 0,00
157, -26431,81, -24490,27, -12081,74, -23392,40, -10584,58, -4111,80, -21833,61, -20520,49, 0,00, 0,00, 0,00
158, -26428,01, -24492,01, -12086,46, -23394,88, -10593,07, -4125,46, -21852,09, -20532,85, 0,00, 0,00, 0,00
159, -26429,51, -24486,92, -12068,98, -23398,56, -10602,19, -4130,74, -21877,62, -20547,11, 0,00, 0,00, 0,00
160, -26434,18, -24485,26, -12064,78, -23405,14, -10608,90, -4137,38, -21889,22, -20577,39, 0,00, 0,00, 0,00
161, -26430,18, -24475,81, -12080,51, -23398,03, -10601,79, -4139,36, -21877,55, -20544,49, 0,00, 0,00, 0,00
162, -26421,08, -24466,15, -12090,97, -23391,68, -10595,75, -4122,15, -21862,96, -20529,83, 0,00, 0,00, 0,00
163, -26426,02, -24478,78, -12073,29, -23400,06, -10602,44, -4111,60, -21873,04, -20549,37, 0,00, 0,00, 0,00
164, -26434,31, -24480,21, -12041,69, -23403,24, -10603,76, -4101,14, -21872,95, -20566,40, 0,00, 0,00, 0,00
165, -26426,58, -24468,77, -12045,27, -23396,64, -10603,94, -4112,92, -21877,17, -20573,35, -0,08, 0,98, 0,24
166, -26420,74, -24468,28, -12066,48, -23388,13, -10599,82, -4122,13, -21880,10, -20540,63, 0,00, 0,00, 0,00
167, -26420,30, -24471,16, -12062,45, -23387,23, -10598,35, -4093,99, -21865,97, -20529,81, 0,00, 0,00, 0,00
168, -26426,11, -24478,49, -12039,28, -23388,87, -10602,42, -4077,14, -21861,03, -20537,59, 0,00, 0,00, 0,00
169, -26422,69, -24477,86, -12024,50, -23386,34, -10602,04, -4084,31, -21870,38, -20537,50, 0,00, 0,00, 0,00
170, -26418,58, -24471,61, -12029,13, -23388,64, -10602,44, -4097,83, -21862,93, -20536,94, 0,00, 0,00, 0,00
171, -26420,54, -24476,08, -12051,99, -23393,13, -10605,61, -4112,61, -21869,17, -20543,13, 0,00, 0,00, 0,00
172, -26420,25, -24485,49, -12067,35, -23395,01, -10609,50, -4102,82, -21883,38, -20545,54, 0,00, 0,00, 0,00
173, -26424,19, -24488,93, -12081,81, -23398,99, -10616,56, -4123,38, -21899,28, -20566,06, 0,00, 0,00, 0,00
174, -26430,20, -24487,95, -12057,25, -23403,68, -10612,54, -4124,39, -21867,02, -20579,03, 0,00, 0,00, 0,00
175, -26422,51, -24480,68, -12064,33, -23401,36, -10610,86, -4138,85, -21853,88, -20572,75, -0,09, 0,97, 0,23
176, -26423,11, -24479,03, -12079,71, -23399,64, -10609,61, -4142,43, -21868,57, -20549,68, 0,00, 0,00, 0,00
177, -26425,21, -24483,00, -12075,57, -23399,64, -10611,80, -4112,12, -21889,15, -20542,41, 0,00, 0,00, 0,00
178, -26425,91, -24481,44, -12066,23, -23397,22, -10611,71, -4107,36, -21898,94, -20539,93, 0,00, 0,00, 0,00
179, -26428,77, -24486,02, -12053,27, -23402,54, -10612,56, -4111,07, -21885,91, -20545,97, 0,00, 0,00, 0,00
180, -26428,01, -24484,03, -12053,38, -23402,39, -10609,46, -4116,81, -21869,04, -20547,31, 0,00, 0,00, 0,00
181, -26426,76, -24481,78, -12071,84, -23396,91, -10603,82, -4124,59, -21859,27, -20545,03, 0,00, 0,00, 0,00
182, -26427,74, -24484,99, -12080,22, -23401,54, -10603,53, -4108,27, -21858,44, -20552,27, 0,00, 0,00, 0,00
183, -26431,05, -24486,34, -12071,39, -23405,32, -10604,38, -4103,82, -21859,16, -20541,81, 0,00, 0,00, 0,00
184, -26430,11, -24482,22, -12052,73, -23402,66, -10604,02, -4105,50, -21868,19, -20543,87, 0,00, 0,00, 0,00
185, -26427,16, -24485,02, -12061,38, -23404,53, -10604,96, -4119,31, -21871,03, -20557,19, -0,09, 0,97, 0,23
186, -26426,56, -24486,27, -12079,11, -23403,42, -10605,12, -4126,82, -21876,37, -20555,65, 0,00, 0,00, 0,00
187, -26426,89, -24485,42, -12090,53, -23403,82, -10610,40, -4117,10, -21899,14, -20567,67, 0,00, 0,00, 0,00
188, -26429,30, -24483,27, -12068,35, -23403,59, -10609,50, -4102,55, -21902,54, -20557,84, 0,00, 0,00, 0,00
189, -26431,65, -24485,62, -12038,18, -23406,10, -10604,58, -4096,99, -21872,16, -20569,66, 0,00, 0,00, 0,00
190, -26432,23, -24482,42, -12040,01, -23406,99, -10603,76, -4110,87, -21864,99, -20583,27, 0,00, 0,00, 0,00
191, -26430,56, -24479,67, -12069,65, -23401,47, -10604,18, -4127,20, -21875,34, -20559,51, 0,00, 0,00, 0,00
192, -26431,07, -24488,71, -12073,83, -23399,17, -10603,13, -4103,62, -21873,64, -20532,92, 0,00, 0,00, 0,00
193, -26426,33, -24486,96, -12058,61, -23391,70, -10595,15, -4097,41, -21840,47, -20523,28, 0,00, 0,00, 0,00
194, -26434,49, -24491,30, -12044,21, -23399,82, -10599,22, -4105,68, -21844,38, -20536,49, 0,00, 0,00, 0,00
195, -26438,29, -24490,89, -12041,02, -23403,35, -10605,25, -4108,52, -21869,50, -20534,99, -0,08, 0,97, 0,23
196, -26434,09, -24489,26, -12055,70, -23396,69, -10601,05, -4113,91, -21858,31, -20535,53, 0,00, 0,00, 0,00
197, -26430,69, -24488,99, -12064,38, -23393,31, -10598,68, -4099,22, -21848,20, -20548,47, 0,00, 0,00, 0,00
198, -26429,53, -24488,97, -12049,07, -23394,32, -10604,09, -4087,89, -21858,78, -20563,09, 0,00, 0,00, 0,00
199, -26430,76, -24486,60, -12038,78, -23390,34, -10607,74, -4093,90, -21872,66, -20539,04, 0,00, 0,00, 0,00
200, -26428,97, -24483,27, -12048,51, -23389,58, -10607,82, -4108,18, -21867,98, -20527,15, 0,00, 0,00, 0,00
201, -26423,20, -24477,46, -12060,75, -23389,13, -10603,82, -4108,63, -21854,66, -20527,95, 0,00, 0,00, 0,00
202, -26425,60, -24478,18, -12054,81, -23394,30, -10605,05, -4075,86, -21864,01, -20536,02, 0,00, 0,00, 0,00
203, -26423,09, -24473,35, -12049,02, -23392,60, -10602,88, -4076,98, -21862,91, -20548,88, 0,00, 0,00, 0,00
204, -26425,10, -24476,57, -12035,30, -23392,80, -10601,03, -4085,34, -21861,88, -20558,96, 0,00, 0,00, 0,00
205, -26425,37, -24485,42, -12034,16, -23393,78, -10605,59, -4091,53, -21880,72, -20570,20, -0,08, 0,97, 0,22
206, -26428,39, -24482,51, -12038,89, -23394,21, -10607,78, -4087,64, -21886,76, -20559,51, 0,00, 0,00, 0,00
207, -26422,31, -24472,05, -12049,62, -23390,96, -10605,21, -4074,59, -21878,87, -20553,19, 0,00, 0,00, 0,00
208, -26415,74, -24474,49, -12045,98, -23387,99, -10592,58, -4079,57, -21850,55, -20547,64, 0,00, 0,00, 0,00
209, -26425,97, -24486,65, -12008,97, -23397,04, -10592,76, -4065,42, -21858,75, -20537,56, 0,00, 0,00, 0,00
210, -26415,80, -24472,19, -12006,64, -23385,76, -10588,60, -4068,60, -21867,76, -20532,92, 0,00, 0,00, 0,00
211, -26407,91, -24467,02, -12027,79, -23379,39, -10586,10, -4082,01, -21862,82, -20531,69, 0,00, 0,00, 0,00
212, -26403,67, -24468,01, -12042,07, -23378,72, -10587,51, -4071,21, -21863,34, -20532,45, 0,00, 0,00, 0,00
213, -26401,10, -24472,25, -12038,09, -23375,92, -10587,91, -4072,04, -21868,57, -20525,40, 0,00, 0,00, 0,00
214, -26401,70, -24471,27, -12020,03, -23375,63, -10582,01, -4075,59, -21850,53, -20521,45, -0,09, 0,97, 0,23
215, -26402,88, -24463,07, -12014,53, -23376,59, -10583,08, -4081,41, -21858,87, -20536,89, 0,00, 0,00, 0,00
216, -26397,54, -24464,86, -12031,88, -23375,54, -10583,60, -4091,31, -21856,70, -20542,97, 0,00, 0,00, 0,00
217, -26402,68, -24470,55, -12037,02, -23375,43, -10583,13, -4070,63, -21866,91, -20539,17, 0,00, 0,00, 0,00
218, -26401,37, -24470,49, -12026,27, -23372,93, -10579,35, -4064,78, -21845,77, -20529,56, 0,00, 0,00, 0,00
219, -26398,10, -24472,48, -12022,35, -23373,42, -10578,34, -4081,34, -21834,01, -20546,24, 0,00, 0,00, 0,00
220, -26406,19, -24474,96, -12013,73, -23379,86, -10581,65, -4080,51, -21844,47, -20542,50, 0,00, 0,00, 0,00
221, -26408,07, -24468,03, -12028,01, -23378,31, -10585,27, -4081,45, -21853,39, -20518,10, 0,00, 0,00, 0,00
222, -26414,69, -24471,52, -12029,35, -23379,74, -10586,32, -4056,84, -21863,31, -20520,40, 0,00, 0,00, 0,00
223, -26420,59, -24475,14, -12023,14, -23386,90, -10595,69, -4055,25, -21874,98, -20553,41, 0,00, 0,00, 0,00
224, -26415,67, -24471,79, -12027,94, -23383,68, -10594,10, -4078,03, -21868,74, -20575,70, -0,09, 0,97, 0,23
225, -26410,93, -24470,78, -12035,65, -23382,72, -10593,27, -4092,98, -21860,92, -20563,31, 0,00, 0,00, 0,00
226, -26408,59, -24474,13, -12053,29, -23385,20, -10598,66, -4101,21, -21865,10, -20550,89, 0,00, 0,00, 0,00
227, -26414,04, -24477,26, -12058,23, -23388,80, -10607,15, -4082,55, -21875,45, -20541,95, 0,00, 0,00, 0,00
228, -26411,98, -24470,96, -12052,42, -23380,82, -10608,61, -4086,61, -21875,05, -20523,06, 0,00, 0,00, 0,00
229, -26412,54, -24462,84, -12034,69, -23379,57, -10607,51, -4094,26, -21869,64, -20531,55, 0,00, 0,00, 0,00
230, -26417,62, -24466,31, -12012,54, -23386,54, -10613,41, -4084,69, -21877,69, -20546,51, 0,00, 0,00, 0,00
231, -26417,32, -24471,74, -12028,90, -23389,65, -10619,56, -4093,65, -21880,59, -20550,93, 0,00, 0,00, 0,00
232, -26407,33, -24466,35, -12050,09, -23380,44, -10611,94, -4091,62, -21868,72, -20532,36, 0,00, 0,00, 0,00
233, -26409,97, -24469,17, -12039,86, -23387,68, -10618,62, -4089,34, -21886,22, -20548,29, 0,00, 0,00, 0,00
234, -26417,39, -24468,16, -12023,94, -23384,42, -10615,56, -4091,98, -21878,20, -20537,54, -0,09, 0,98, 0,23
235, -26415,34, -24466,60, -12016,07, -23379,61, -10602,97, -4089,45, -21857,08, -20520,51, 0,00, 0,00, 0,00
236, -26418,13, -24473,53, -12014,89, -23382,38, -10601,14, -4079,91, -21850,77, -20519,53, 0,00, 0,00, 0,00
237, -26412,45, -24465,97, -12032,93, -23376,44, -10600,92, -4072,17, -21844,31, -20530,66, 0,00, 0,00, 0,00
238, -26413,68, -24463,87, -12035,36, -23379,25, -10597,65, -4080,00, -21840,92, -20538,55, 0,00, 0,00, 0,00
239, -26418,33, -24470,87, -12017,53, -23383,25, -10593,54, -4085,36, -21835,37, -20546,08, 0,00, 0,00, 0,00
240, -26414,78, -24473,51, -12017,37, -23381,31, -10593,97, -4092,43, -21839,71, -20544,70, 0,00, 0,00, 0,00
241, -26414,60, -24475,63, -12034,60, -23379,90, -10596,31, -4094,30, -21856,99, -20541,72, 0,00, 0,00, 0,00
242, -26423,58, -24475,94, -12033,26, -23386,12, -10601,92, -4068,04, -21879,21, -20564,77, 0,00, 0,00, 0,00
243, -26425,06, -24475,43, -12020,30, -23386,41, -10602,19, -4059,48, -21871,63, -20571,52, 0,00, 0,00, 0,00
244, -26425,37, -24485,51, -12011,31, -23385,94, -10596,60, -4065,63, -21854,06, -20551,85, -0,08, 0,98, 0,23
245, -26422,09, -24484,19, -12020,37, -23385,09, -10593,14, -4079,35, -21847,71, -20537,72, 0,00, 0,00, 0,00
246, -26421,35, -24480,21, -12042,96, -23386,88, -10593,92, -4092,49, -21848,92, -20522,95, 0,00, 0,00, 0,00
247, -26421,73, -24485,64, -12040,06, -23395,28, -10600,69, -4066,32, -21864,63, -20536,13, 0,00, 0,00, 0,00
248, -26412,90, -24488,35, -12018,98, -23392,89, -10599,22, -4052,57, -21860,94, -20539,04, 0,00, 0,00, 0,00
249, -26413,59, -24487,10, -12019,18, -23393,18, -10602,44, -4075,80, -21867,76, -20555,54, 0,00, 0,00, 0,00
250, -26413,77, -24479,32, -12025,06, -23394,38, -10602,86, -4094,59, -21890,83, -20572,23, 0,00, 0,00, 0,00
251, -26414,24, -24482,92, -12041,20, -23393,98, -10599,96, -4102,22, -21876,23, -20554,19, 0,00, 0,00, 0,00
252, -26415,96, -24480,84, -12039,36, -23393,78, -10593,16, -4079,57, -21855,09, -20544,45, 0,00, 0,00, 0,00
253, -26415,65, -24482,49, -12017,48, -23396,78, -10598,12, -4068,17, -21872,25, -20546,17, 0,00, 0,00, 0,00
254, -26412,29, -24483,59, -12022,33, -23394,59, -10605,66, -4094,86, -21889,35, -20550,75, -0,09, 0,97, 0,23
255, -26406,51, -24474,49, -12030,80, -23395,77, -10606,46, -4113,68, -21880,79, -20558,62, 0,00, 0,00, 0,00
0, -26404,47, -24465,75, -12046,38, -23394,81, -10605,83, -4121,71, -21874,71, -20552,85, 0,00, 0,00, 0,00
1, -26413,39, -24477,04, -12028,95, -23396,51, -10598,33, -4081,65, -21852,14, -20532,74, 0,00, 0,00, 0,00
2, -26412,54, -24472,86, -12017,62, -23398,41, -10602,13, -4076,24, -21848,36, -20548,20, 0,00, 0,00, 0,00
3, -26412,52, -24476,43, -12022,02, -23397,72, -10608,07, -4102,13, -21878,15, -20571,81, 0,00, 0,00, 0,00
4, -26413,55, -24483,41, -12031,81, -23392,13, -10605,21, -4116,34, -21871,05, -20560,12, 0,00, 0,00, 0,00
5, -26418,04, -24483,85, -12039,68, -23393,40, -10603,91, -4111,40, -21861,08, -20559,74, 0,00, 0,00, 0,00
6, -26419,56, -24483,72, -12037,64, -23392,60, -10603,82, -4084,20, -21854,69, -20559,25, 0,00, 0,00, 0,00
7, -26422,15, -24484,81, -12018,73, -23387,34, -10601,97, -4070,61, -21856,74, -20537,30, 0,00, 0,00, 0,00
8, -26426,09, -24479,67, -12009,30, -23382,92, -10600,85, -4078,14, -21853,75, -20518,70, -0,09, 0,97, 0,22
9, -26421,68, -24475,79, -12013,50, -23377,15, -10595,67, -4088,27, -21838,08, -20517,98, 0,00, 0,00, 0,00
10, -26422,00, -24477,84, -12032,12, -23376,21, -10596,31, -4098,84, -21845,03, -20531,71, 0,00, 0,00, 0,00
11, -26419,29, -24483,25, -12049,60, -23377,60, -10599,24, -4093,72, -21853,57, -20550,10, 0,00, 0,00, 0,00
12, -26423,87, -24481,33, -12029,24, -23376,93, -10597,65, -4082,79, -21864,10, -20542,28, 0,00, 0,00, 0,00
13, -26428,12, -24483,45, -12012,88, -23374,07, -10595,38, -4087,31, -21865,44, -20530,72, 0,00, 0,00, 0,00
14, -26425,42, -24484,53, -12006,02, -23370,42, -10589,61, -4085,88, -21831,95, -20524,18, 0,00, 0,00, 0,00
15, -26425,01, -24478,65, -12047,75, -23371,07, -10594,03, -4115,78, -21830,03, -20534,86, 0,00, 0,00, 0,00
16, -26425,39, -24478,69, -12055,73, -23371,59, -10596,58, -4098,86, -21848,07, -20524,91, 0,00, 0,00, 0,00
17, -26425,84, -24478,45, -12028,75, -23371,45, -10595,33, -4081,29, -21856,25, -20525,36, 0,00, 0,00, 0,00
18, -26426,49, -24473,59, -12028,57, -23370,47, -10598,10, -4105,50, -21860,05, -20529,12, -0,09, 0,97, 0,23
19, -26426,11, -24475,83, -12036,62, -23367,83, -10595,44, -4122,04, -21861,57, -20512,42, 0,00, 0,00, 0,00
20, -26430,13, -24484,37, -12041,26, -23372,62, -10598,57, -4117,75, -21866,58, -20509,27, 0,00, 0,00, 0,00
21, -26425,08, -24484,01, -12040,39, -23371,56, -10597,63, -4091,40, -21854,80, -20532,00, 0,00, 0,00, 0,00
22, -26420,68, -24485,82, -12042,14, -23369,91, -10596,98, -4099,82, -21848,85, -20555,47, 0,00, 0,00, 0,00
23, -26419,45, -24484,12, -12025,75, -23365,95, -10593,72, -4106,66, -21835,82, -20531,13, 0,00, 0,00, 0,00
24, -26421,10, -24480,46, -12021,64, -23365,11, -10594,88, -4113,79, -21848,92, -20527,33, 0,00, 0,00, 0,00
25, -26424,79, -24487,59, -12014,08, -23371,05, -10595,71, -4099,06, -21842,68, -20538,88, 0,00, 0,00, 0,00
26, -26413,70, -24480,05, -12021,59, -23366,67, -10591,28, -4081,29, -21819,48, -20521,00, 0,00, 0,00, 0,00
27, -26403,00, -24472,30, -12027,94, -23363,12, -10595,82, -4093,41, -21838,48, -20530,70, -0,09, 0,97, 0,23
28, -26403,96, -24475,47, -12014,20, -23366,04, -10595,67, -4099,44, -21840,43, -20527,06, 0,00, 0,00, 0,00
29, -26409,08, -24475,45, -12014,49, -23368,37, -10598,28, -4107,16, -21848,65, -20529,32, 0,00, 0,00, 0,00
30, -26410,84, -24472,39, -12040,12, -23367,09, -10594,97, -4121,82, -21840,54, -20518,36, 0,00, 0,00, 0,00
31, -26410,42, -24470,18, -12043,77, -23366,04, -10592,45, -4101,19, -21845,19, -20517,78, 0,00, 0,00, 0,00
32, -26409,57, -24471,63, -12029,22, -23366,31, -10592,29, -4092,56, -21857,26, -20541,45, 0,00, 0,00, 0,00
33, -26412,97, -24476,75, -12007,94, -23370,47, -10594,59, -4095,87, -21864,41, -20558,96, 0,00, 0,00, 0,00
34, -26407,96, -24472,46, -12013,66, -23366,20, -10593,88, -4110,96, -21855,69, -20551,29, 0,00, 0,00, 0,00
35, -26404,21, -24461,61, -12031,09, -23359,36, -10584,89, -4120,14, -21829,65, -20544,65, 0,00, 0,00, 0,00
36, -26404,94, -24457,05, -12024,23, -23357,39, -10583,04, -4088,69, -21830,12, -20522,41, 0,00, 0,00, 0,00
37, -26405,79, -24464,21, -12017,53, -23357,73, -10587,17, -4088,18, -21851,24, -20518,81, -0,08, 0,98, 0,22
38, -26411,38, -24476,23, -11992,45, -23361,19, -10584,94, -4086,79, -21834,39, -20531,26, 0,00, 0,00, 0,00
39, -26410,37, -24477,73, -11985,99, -23365,02, -10585,67, -4089,52, -21830,43, -20556,21, 0,00, 0,00, 0,00
40, -26409,12, -24470,85, -12001,01, -23361,17, -10584,65, -4094,30, -21843,60, -20543,73, 0,00, 0,00, 0,00
41, -26415,22, -24472,23, -12027,12, -23360,41, -10585,34, -4091,75, -21852,32, -20509,76, 0,00, 0,00, 0,00
42, -26415,45, -24476,75, -12020,88, -23362,54, -10584,00, -4088,38, -21841,50, -20506,09, 0,00, 0,00, 0,00
43, -26419,78, -24477,35, -11998,62, -23360,95, -10579,53, -4088,38, -21824,53, -20517,36, 0,00, 0,00, 0,00
44, -26425,44, -24476,70, -12000,90, -23362,24, -10581,74, -4095,26, -21821,43, -20522,50, 0,00, 0,00, 0,00
45, -26422,22, -24471,40, -12034,89, -23357,73, -10581,25, -4118,82, -21811,46, -20515,97, 0,00, 0,00, 0,00
46, -26423,76, -24472,61, -12047,59, -23355,72, -10576,80, -4106,02, -21804,10, -20512,17, 0,00, 0,00, 0,00
47, -26421,28, -24473,30, -12021,42, -23356,92, -10576,26, -4084,29, -21817,74, -20506,70, -0,08, 0,98, 0,22
48, -26427,58, -24474,20, -12001,66, -23364,43, -10586,19, -4085,32, -21838,97, -20517,43, 0,00, 0,00, 0,00
49, -26423,70, -24468,90, -12023,29, -23363,21, -10587,82, -4111,98, -21833,96, -20525,99, 0,00, 0,00, 0,00
50, -26423,27, -24470,02, -12039,34, -23363,99, -10582,70, -4119,14, -21825,85, -20536,87, 0,00, 0,00, 0,00
51, -26432,55, -24478,60, -12033,11, -23373,67, -10587,15, -4089,94, -21835,57, -20542,13, 0,00, 0,00, 0,00
52, -26431,72, -24476,59, -12023,05, -23373,87, -10591,64, -4082,37, -21845,16, -20521,78, 0,00, 0,00, 0,00
53, -26425,64, -24470,96, -12009,84, -23373,67, -10589,45, -4090,64, -21839,91, -20517,80, 0,00, 0,00, 0,00
54, -26418,76, -24474,89, -12014,64, -23376,71, -10587,93, -4107,56, -21827,48, -20525,03, 0,00, 0,00, 0,00
55, -26420,99, -24474,47, -12030,40, -23381,98, -10593,25, -4116,57, -21836,09, -20539,60, 0,00, 0,00, 0,00
56, -26422,82, -24471,34, -12046,00, -23381,29, -10596,83, -4109,12, -21864,21, -20545,14, 0,00, 0,00, 0,00
57, -26421,53, -24475,12, -12040,06, -23378,96, -10598,71, -4108,79, -21889,53, -20533,12, -0,09, 0,98, 0,22
58, -26413,55, -24474,98, -12028,86, -23377,93, -10592,54, -4120,57, -21865,50, -20530,43, 0,00, 0,00, 0,00
59, -26409,52, -24472,10, -12031,56, -23381,76, -10591,91, -4131,88, -21854,02, -20537,77, 0,00, 0,00, 0,00
60, -26410,98, -24470,09, -12035,52, -23385,33, -10596,49, -4127,72, -21873,30, -20550,55, 0,00, 0,00, 0,00
61, -26411,13, -24472,05, -12037,08, -23385,71, -10594,44, -4106,15, -21879,94, -20548,65, 0,00, 0,00, 0,00
62, -26412,29, -24464,99, -12020,30, -23379,16, -10586,55, -4092,89, -21847,78, -20535,37, 0,00, 0,00, 0,00
63, -26409,63, -24460,21, -12002,37, -23374,40, -10582,75, -4093,86, -21847,62, -20510,56, 0,00, 0,00, 0,00
64, -26410,02, -24461,64, -11987,51, -23375,61, -10576,76, -4085,21, -21827,21, -20497,11, 0,00, 0,00, 0,00
65, -26405,05, -24458,66, -12013,53, -23375,39, -10578,99, -4095,76, -21822,46, -20494,09, 0,00, 0,00, 0,00
66, -26404,05, -24453,23, -12031,14, -23373,13, -10578,66, -4080,94, -21821,13, -20503,12, 0,00, 0,00, 0,00
67, -26406,44, -24453,01, -12027,94, -23374,83, -10578,95, -4078,95, -21834,08, -20516,55, -0,09, 0,97, 0,22
68, -26409,86, -24453,84, -12003,42, -23376,68, -10577,00, -4072,76, -21841,48, -20511,10, 0,00, 0,00, 0,00
69, -26413,19, -24458,89, -12000,11, -23379,25, -10578,50, -4074,01, -21843,78, -20518,16, 0,00, 0,00, 0,00
70, -26420,07, -24466,06, -12018,67, -23384,60, -10579,28, -4079,28, -21834,66, -20527,37, 0,00, 0,00, 0,00
71, -26428,50, -24470,33, -12030,18, -23392,37, -10583,64, -4061,22, -21833,79, -20522,63, 0,00, 0,00, 0,00
72, -26424,34, -24469,57, -12020,90, -23390,68, -10583,24, -4053,00, -21840,27, -20496,88, 0,00, 0,00, 0,00
73, -26427,56, -24476,28, -12000,41, -23399,66, -10590,35, -4050,81, -21852,43, -20499,34, 0,00, 0,00, 0,00
74, -26421,46, -24470,49, -12007,56, -23395,03, -10594,50, -4064,98, -21854,06, -20505,47, 0,00, 0,00, 0,00
75, -26421,53, -24468,32, -12023,47, -23389,78, -10595,93, -4071,66, -21847,76, -20511,97, 0,00, 0,00, 0,00
76, -26426,96, -24468,25, -12037,24, -23393,47, -10602,35, -4062,23, -21849,48, -20528,29, 0,00, 0,00, 0,00
77, -26423,11, -24467,98, -12022,20, -23387,90, -10601,48, -4052,26, -21868,14, -20522,28, -0,08, 0,98, 0,23
78, -26412,94, -24460,45, -12022,91, -23380,55, -10599,71, -4074,45, -21869,04, -20528,69, 0,00, 0,00, 0,00
79, -26414,44, -24459,40, -12041,31, -23379,66, -10599,44, -4102,04, -21859,04, -20543,06, 0,00, 0,00, 0,00
80, -26420,59, -24462,13, -12044,17, -23385,31, -10603,09, -4100,87, -21869,48, -20552,36, 0,00, 0,00, 0,00
81, -26410,82, -24455,80, -12051,68, -23381,47, -10602,80, -4084,80, -21885,73, -20541,16, 0,00, 0,00, 0,00
82, -26417,19, -24453,14, -12048,95, -23378,40, -10597,95, -4084,09, -21889,67, -20519,62, 0,00, 0,00, 0,00
83, -26426,11, -24457,55, -12018,47, -23377,89, -10589,38, -4075,44, -21856,00, -20518,25, 0,00, 0,00, 0,00
84, -26429,30, -24463,51, -12005,95, -23379,39, -10594,19, -4067,55, -21858,96, -20518,70, 0,00, 0,00, 0,00
85, -26419,69, -24453,84, -12032,93, -23370,29, -10587,08, -4081,81, -21827,93, -20526,19, 0,00, 0,00, 0,00
86, -26414,82, -24453,68, -12031,32, -23365,15, -10576,20, -4050,85, -21806,50, -20492,77, 0,00, 0,00, 0,00
87, -26417,71, -24459,27, -12022,20, -23368,01, -10581,23, -4042,76, -21827,30, -20493,62, -0,08, 0,97, 0,22
88, -26421,97, -24465,59, -12006,93, -23374,47, -10589,83, -4046,87, -21851,31, -20524,20, 0,00, 0,00, 0,00
89, -26411,98, -24463,22, -12006,53, -23367,45, -10585,36, -4051,41, -21847,04, -20517,20, 0,00, 0,00, 0,00
90, -26413,32, -24458,33, -12012,88, -23362,54, -10578,68, -4042,25, -21834,28, -20482,49, 0,00, 0,00, 0,00
91, -26416,34, -24452,45, -12021,01, -23364,66, -10580,31, -4021,21, -21831,30, -20478,71, 0,00, 0,00, 0,00
92, -26408,21, -24454,24, -12021,19, -23368,01, -10586,93, -4021,32, -21842,88, -20492,55, 0,00, 0,00, 0,00
93, -26411,76, -24461,93, -12007,27, -23370,69, -10589,45, -4024,70, -21849,01, -20502,25, 0,00, 0,00, 0,00
94, -26412,70, -24460,41, -12009,66, -23374,34, -10596,36, -4036,14, -21865,59, -20520,33, 0,00, 0,00, 0,00
95, -26408,96, -24457,41, -12035,45, -23374,16, -10599,29, -4053,13, -21868,54, -20525,58, 0,00, 0,00, 0,00
96, -26407,00, -24452,79, -12044,89, -23372,37, -10593,50, -4038,22, -21851,53, -20528,11, 0,00, 0,00, 0,00
97, -26410,60, -24449,77, -12034,36, -23377,38, -10601,61, -4035,25, -21871,90, -20537,05, -0,09, 0,97, 0,23
98, -26408,99, -24453,30, -12027,14, -23374,72, -10606,77, -4053,29, -21899,59, -20532,00, 0,00, 0,00, 0,00
99, -26400,67, -24456,07, -12019,47, -23365,98, -10596,42, -4057,27, -21887,97, -20525,52, 0,00, 0,00, 0,00
100, -26399,87, -24451,44, -12023,00, -23363,50, -10591,28, -4051,61, -21862,11, -20515,28, 0,00, 0,00, 0,00
101, -26403,02, -24444,16, -12038,58, -23362,80, -10591,51, -4042,00, -21851,49, -20515,88, 0,00, 0,00, 0,00
102, -26409,17, -24445,90, -12021,53, -23365,73, -10593,81, -4030,91, -21857,48, -20522,41, 0,00, 0,00, 0,00
103, -26411,18, -24442,79, -12011,63, -23361,08, -10596,29, -4042,67, -21873,55, -20532,33, 0,00, 0,00, 0,00
104, -26403,47, -24444,47, -12021,21, -23360,77, -10596,11, -4063,79, -21882,45, -20554,84, 0,00, 0,00, 0,00
105, -26404,25, -24447,58, -12028,03, -23361,42, -10594,88, -4062,56, -21876,77, -20551,45, 0,00, 0,00, 0,00
106, -26401,03, -24454,01, -12046,00, -23357,95, -10594,68, -4051,28, -21879,56, -20535,24, -0,08, 0,96, 0,23
107, -26407,02, -24460,36, -12033,73, -23363,52, -10593,54, -4043,52, -21881,75, -20521,49, 0,00, 0,00, 0,00
108, -26408,79, -24458,06, -12010,08, -23364,81, -10588,40, -4042,27, -21855,31, -20521,72, 0,00, 0,00, 0,00
109, -26410,33, -24453,39, -12018,22, -23361,42, -10585,70, -4056,93, -21842,44, -20511,05, 0,00, 0,00, 0,00
110, -26424,34, -24456,09, -12017,73, -23370,71, -10588,62, -4046,02, -21845,99, -20511,21, 0,00, 0,00, 0,00
111, -26426,87, -24457,59, -12021,82, -23371,88, -10588,29, -4020,34, -21833,12, -20511,14, 0,00, 0,00, 0,00
112, -26420,39, -24451,38, -12027,83, -23362,45, -10587,28, -4022,55, -21838,08, -20506,90, 0,00, 0,00, 0,00
113, -26419,87, -24451,33, -12015,96, -23365,15, -10592,29, -4028,88, -21857,90, -20512,35, 0,00, 0,00, 0,00
114, -26417,57, -24450,21, -12014,46, -23364,48, -10592,80, -4036,39, -21857,26, -20513,63, 0,00, 0,00, 0,00
115, -26417,39, -24467,00, -12030,51, -23363,58, -10593,43, -4041,02, -21847,33, -20512,11, 0,00, 0,00, 0,00
116, -26420,23, -24471,81, -12033,91, -23365,37, -10593,47, -4021,03, -21839,42, -20514,54, -0,09, 0,97, 0,23
117, -26419,11, -24469,84, -12028,95, -23370,02, -10600,54, -4021,82, -21851,87, -20523,24, 0,00, 0,00, 0,00
118, -26416,14, -24464,45, -12026,13, -23371,30, -10606,62, -4040,35, -21871,11, -20524,64, 0,00, 0,00, 0,00
119, -26410,51, -24467,49, -12027,12, -23370,42, -10604,58, -4050,69, -21853,57, -20527,62, 0,00, 0,00, 0,00
120, -26415,74, -24461,01, -12034,54, -23363,29, -10601,81, -4053,35, -21848,23, -20519,64, 0,00, 0,00, 0,00
121, -26418,80, -24458,69, -12024,66, -23362,58, -10598,39, -4024,14, -21841,25, -20504,84, 0,00, 0,00, 0,00
122, -26420,65, -24460,85, -12011,49, -23366,58, -10601,43, -4015,96, -21840,04, -20510,90, 0,00, 0,00, 0,00
123, -26416,36, -24464,12, -12005,34, -23367,05, -10603,62, -4032,05, -21857,81, -20535,87, 0,00, 0,00, 0,00
124, -26411,22, -24456,76, -12015,18, -23361,17, -10602,91, -4050,40, -21870,42, -20535,57, 0,00, 0,00, 0,00
125, -26410,98, -24455,49, -12035,50, -23360,19, -10602,24, -4063,93, -21869,42, -20533,61, 0,00, 0,00, 0,00
126, -26406,28, -24454,91, -12043,12, -23361,89, -10603,76, -4050,65, -21875,90, -20542,13, -0,09, 0,97, 0,23
127, -26397,77, -24458,44, -12031,25, -23355,54, -10596,18, -4045,71, -21858,98, -20528,71, 0,00, 0,00, 0,00
128, -26390,23, -24448,67, -12007,33, -23347,27, -10589,32, -4039,72, -21847,51, -20507,41, 0,00, 0,00, 0,00
129, -26392,80, -24438,28, -12017,95, -23347,63, -10592,98, -4054,99, -21854,33, -20522,39, 0,00, 0,00, 0,00
130, -26396,31, -24436,58, -12034,69, -23348,16, -10593,81, -4061,49, -21860,21, -20516,26, 0,00, 0,00, 0,00
131, -26398,17, -24437,34, -12039,14, -23345,59, -10591,02, -4036,66, -21850,84, -20503,50, 0,00, 0,00, 0,00
132, -26403,82, -24443,51, -12028,23, -23346,66, -10592,31, -4031,49, -21863,00, -20515,75, 0,00, 0,00, 0,00
133, -26399,69, -24443,29, -12015,85, -23345,93, -10595,46, -4037,28, -21880,30, -20516,98, 0,00, 0,00, 0,00
134, -26400,09, -24436,24, -12011,13, -23345,46, -10594,01, -4039,99, -21877,35, -20517,20, 0,00, 0,00, 0,00
135, -26401,68, -24435,35, -12017,46, -23340,43, -10583,91, -4035,74, -21831,24, -20501,98, 0,00, 0,00, 0,00
136, -26401,16, -24439,15, -12024,03, -23339,89, -10581,05, -4014,98, -21832,87, -20496,24, -0,08, 0,97, 0,23
137, -26407,74, -24446,88, -12026,04, -23353,68, -10598,73, -4022,11, -21870,58, -20523,19, 0,00, 0,00, 0,00
138, -26405,14, -24443,84, -12013,19, -23360,32, -10600,47, -4032,79, -21874,56, -20535,33, 0,00, 0,00, 0,00
139, -26409,57, -24452,88, -12006,78, -23366,38, -10602,35, -4038,80, -21868,52, -20531,95, 0,00, 0,00, 0,00
140, -26413,12, -24462,71, -12011,92, -23372,41, -10607,11, -4041,06, -21848,29, -20530,66, 0,00, 0,00, 0,00
141, -26420,05, -24463,22, -12031,41, -23376,01, -10612,18, -4032,68, -21851,58, -20512,96, 0,00, 0,00, 0,00
142, -26423,05, -24463,92, -12015,20, -23381,02, -10611,20, -4019,72, -21852,41, -20507,75, 0,00, 0,00, 0,00
143, -26418,89, -24456,32, -12007,18, -23378,49, -10611,98, -4032,97, -21853,26, -20512,13, 0,00, 0,00, 0,00
144, -26416,54, -24452,61, -12005,72, -23371,79, -10606,64, -4040,73, -21857,66, -20506,63, 0,00, 0,00, 0,00
145, -26418,98, -24461,23, -12035,43, -23374,63, -10612,63, -4060,10, -21862,58, -20532,13, 0,00, 0,00, 0,00
146, -26414,96, -24454,95, -12052,10, -23367,54, -10604,36, -4050,27, -21847,38, -20511,61, -0,08, 0,97, 0,23
147, -26421,57, -24457,97, -12020,01, -23370,85, -10600,00, -4022,53, -21831,78, -20494,72, 0,00, 0,00, 0,00
148, -26418,71, -24463,96, -12007,85, -23372,88, -10604,11, -4032,43, -21848,56, -20516,24, 0,00, 0,00, 0,00
149, -26408,83, -24461,88, -12020,77, -23370,25, -10608,27, -4053,40, -21868,43, -20544,52, 0,00, 0,00, 0,00
150, -26406,69, -24453,48, -12037,00, -23368,44, -10605,77, -4059,97, -21874,22, -20537,59, 0,00, 0,00, 0,00
151, -26407,22, -24446,04, -12041,71, -23362,51, -10596,09, -4037,82, -21855,51, -20499,54, 0,00, 0,00, 0,00
152, -26402,57, -24446,26, -12036,79, -23362,24, -10598,01, -4037,40, -21860,47, -20508,08, 0,00, 0,00, 0,00
153, -26406,82, -24452,94, -12015,00, -23364,19, -10596,04, -4034,29, -21858,57, -20514,30, 0,00, 0,00, 0,00
154, -26411,04, -24456,03, -12005,32, -23364,66, -10593,88, -4032,12, -21854,44, -20526,25, 0,00, 0,00, 0,00
155, -26415,58, -24463,27, -12014,53, -23365,44, -10594,55, -4034,96, -21861,23, -20527,93, 0,00, 0,00, 0,00
156, -26419,18, -24460,16, -12027,94, -23359,16, -10591,55, -4019,83, -21859,80, -20505,60, -0,08, 0,97, 0,23
157, -26419,45, -24459,38, -12017,37, -23358,78, -10588,56, -4009,59, -21832,56, -20500,06, 0,00, 0,00, 0,00
158, -26416,16, -24453,93, -12008,03, -23361,04, -10591,35, -4022,11, -21832,60, -20519,48, 0,00, 0,00, 0,00
159, -26416,72, -24456,41, -12017,26, -23364,30, -10596,76, -4039,47, -21848,52, -20536,69, 0,00, 0,00, 0,00
160, -26415,13, -24453,48, -12029,40, -23358,60, -10592,13, -4044,64, -21852,43, -20527,84, 0,00, 0,00, 0,00
161, -26409,79, -24452,27, -12036,35, -23358,73, -10591,17, -4026,69, -21853,28, -20504,24, 0,00, 0,00, 0,00
162, -26409,19, -24455,18, -12031,85, -23361,73, -10595,67, -4026,53, -21850,44, -20508,98, 0,00, 0,00, 0,00
163, -26409,57, -24456,96, -12025,48, -23365,64, -10601,03, -4043,56, -21861,93, -20525,47, 0,00, 0,00, 0,00
164, -26413,21, -24455,29, -12015,38, -23364,88, -10596,56, -4044,19, -21846,24, -20505,11, 0,00, 0,00, 0,00
165, -26413,57, -24457,50, -12018,40, -23365,02, -10594,44, -4041,17, -21826,43, -20499,46, 0,00, 0,00, 0,00
166, -26407,65, -24454,39, -12022,94, -23357,66, -10592,09, -4020,43, -21831,64, -20492,93, -0,09, 0,98, 0,24
167, -26417,79, -24458,26, -12006,84, -23359,67, -10593,97, -4011,11, -21834,84, -20498,20, 0,00, 0,00, 0,00
168, -26419,92, -24459,27, -11993,30, -23359,85, -10601,10, -4020,52, -21854,39, -20508,64, 0,00, 0,00, 0,00
169, -26417,01, -24450,51, -11992,67, -23356,86, -10602,21, -4033,08, -21864,61, -20518,36, 0,00, 0,00, 0,00
170, -26417,68, -24459,58, -11998,44, -23358,89, -10600,83, -4032,88, -21856,59, -20520,44, 0,00, 0,00, 0,00
171, -26411,74, -24455,69, -12015,40, -23354,80, -10600,65, -4021,82, -21854,17, -20512,53, 0,00, 0,00, 0,00
172, -26406,89, -24453,90, -12006,04, -23356,23, -10599,69, -4013,28, -21844,63, -20531,80, 0,00, 0,00, 0,00
173, -26408,59, -24459,78, -11983,93, -23363,52, -10604,32, -4014,17, -21860,34, -20552,56, 0,00, 0,00, 0,00
174, -26406,44, -24454,84, -11988,47, -23353,13, -10599,33, -4028,75, -21859,69, -20538,26, 0,00, 0,00, 0,00
175, -26406,62, -24461,93, -11996,20, -23347,87, -10591,80, -4029,66, -21837,18, -20508,42, -0,09, 0,97, 0,23
176, -26395,76, -24454,62, -12002,08, -23347,98, -10593,39, -4012,99, -21856,96, -20512,40, 0,00, 0,00, 0,00
177, -26395,22, -24450,66, -11984,49, -23349,17, -10594,15, -4000,43, -21874,22, -20519,77, 0,00, 0,00, 0,00
178, -26397,30, -24442,95, -11980,20, -23341,01, -10587,84, -4017,30, -21849,08, -20516,51, 0,00, 0,00, 0,00
179, -26401,70, -24449,83, -11971,39, -23347,25, -10590,95, -4016,54, -21840,96, -20515,57, 0,00, 0,00, 0,00
180, -26394,08, -24453,66, -12006,17, -23338,80, -10587,86, -4039,72, -21840,63, -20510,99, 0,00, 0,00, 0,00
181, -26395,58, -24457,01, -12009,01, -23341,17, -10584,15, -4018,93, -21829,70, -20512,29, 0,00, 0,00, 0,00
182, -26402,10, -24458,15, -11989,41, -23347,54, -10589,29, -4002,73, -21829,70, -20516,78, 0,00, 0,00, 0,00
183, -26402,97, -24456,21, -11981,38, -23348,61, -10593,41, -4014,53, -21842,55, -20523,75, 0,00, 0,00, 0,00
184, -26406,75, -24466,64, -11987,62, -23350,89, -10594,44, -4028,81, -21845,46, -20512,33, 0,00, 0,00, 0,00
185, -26403,53, -24471,34, -12001,28, -23350,64, -10592,29, -4037,37, -21833,18, -20511,55, -0,08, 0,98, 0,23
186, -26410,98, -24474,29, -12017,57, -23352,19, -10595,33, -4026,91, -21845,72, -20514,77, 0,00, 0,00, 0,00
187, -26415,09, -24470,80, -12015,51, -23358,04, -10601,23, -4024,81, -21861,17, -20520,58, 0,00, 0,00, 0,00
188, -26409,46, -24469,01, -11999,69, -23355,16, -10598,79, -4030,91, -21852,99, -20517,83, 0,00, 0,00, 0,00
189, -26414,38, -24472,32, -11996,31, -23353,04, -10599,44, -4035,96, -21857,08, -20506,50, 0,00, 0,00, 0,00
190, -26417,28, -24473,35, -12000,63, -23352,72, -10601,50, -4032,19, -21851,11, -20504,57, 0,00, 0,00, 0,00
191, -26411,60, -24466,60, -12024,10, -23346,78, -10599,91, -4027,61, -21840,94, -20504,95, 0,00, 0,00, 0,00
192, -26419,81, -24473,77, -12014,49, -23352,81, -10603,24, -4022,06, -21845,63, -20518,74, 0,00, 0,00, 0,00
193, -26427,47, -24482,27, -12004,94, -23357,82, -10608,00, -4036,26, -21853,39, -20536,71, 0,00, 0,00, 0,00
194, -26434,63, -24486,27, -12003,49, -23359,34, -10604,87, -4043,92, -21847,69, -20524,94, 0,00, 0,00, 0,00
195, -26441,33, -24496,04, -12016,77, -23359,99, -10604,81, -4045,80, -21851,18, -20506,99, -0,09, 0,98, 0,22
196, -26456,02, -24505,20, -12029,17, -23359,56, -10601,41, -4030,33, -21842,88, -20510,21, 0,00, 0,00, 0,00
197, -26476,71, -24517,74, -12023,27, -23363,72, -10604,56, -4026,69, -21845,32, -20520,49, 0,00, 0,00, 0,00
198, -26493,50, -24538,79, -12025,57, -23367,56, -10610,69, -4047,07, -21862,51, -20522,34, 0,00, 0,00, 0,00
199, -26514,64, -24556,99, -12023,43, -23373,69, -10613,97, -4054,32, -21861,41, -20530,90, 0,00, 0,00, 0,00
200, -26529,75, -24569,82, -12038,36, -23371,68, -10612,88, -4057,89, -21852,56, -20531,55, 0,00, 0,00, 0,00
201, -26547,30, -24586,34, -12058,52, -23373,17, -10612,09, -4046,27, -21855,51, -20519,68, 0,00, 0,00, 0,00
202, -26567,42, -24604,78, -12051,66, -23380,19, -10617,50, -4039,27, -21854,19, -20520,71, 0,00, 0,00, 0,00
203, -26580,47, -24618,68, -12049,07, -23380,13, -10620,57, -4061,96, -21853,08, -20538,84, 0,00, 0,00, 0,00
204, -26605,53, -24649,14, -12040,64, -23387,08, -10621,68, -4064,64, -21837,77, -20536,31, 0,00, 0,00, 0,00
205, -26622,20, -24667,96, -12040,12, -23387,52, -10623,16, -4054,67, -21837,90, -20514,03, -0,09, 0,97, 0,23
206, -26636,82, -24682,70, -12057,33, -23387,57, -10632,32, -4046,45, -21861,68, -20517,58, 0,00, 0,00, 0,00
207, -26649,25, -24693,13, -12052,60, -23394,79, -10636,43, -4043,39, -21854,87, -20536,69, 0,00, 0,00, 0,00
208, -26661,47, -24700,93, -12043,50, -23399,71, -10639,34, -4056,48, -21849,08, -20542,39, 0,00, 0,00, 0,00
209, -26666,03, -24717,61, -12058,09, -23398,41, -10638,63, -4077,45, -21851,33, -20525,99, 0,00, 0,00, 0,00
210, -26671,82, -24725,43, -12073,38, -23405,79, -10643,34, -4081,52, -21862,55, -20534,59, 0,00, 0,00, 0,00
211, -26669,63, -24721,14, -12098,51, -23405,70, -10644,91, -4082,64, -21874,00, -20549,28, 0,00, 0,00, 0,00
212, -26667,69, -24724,05, -12087,73, -23405,58, -10643,77, -4071,97, -21869,44, -20529,21, 0,00, 0,00, 0,00
213, -26667,80, -24726,59, -12076,67, -23408,47, -10647,75, -4079,22, -21865,91, -20536,69, 0,00, 0,00, 0,00
214, -26667,66, -24721,97, -12066,61, -23414,21, -10655,46, -4078,86, -21892,46, -20562,78, 0,00, 0,00, 0,00
215, -26660,38, -24714,88, -12087,85, -23412,15, -10655,72, -4090,84, -21892,57, -20571,65, -0,08, 0,97, 0,23
216, -26646,59, -24704,18, -12085,70, -23401,02, -10637,73, -4060,37, -21851,42, -20532,67, 0,00, 0,00, 0,00
217, -26641,67, -24701,72, -12069,34, -23401,90, -10637,17, -4046,74, -21858,17, -20525,32, 0,00, 0,00, 0,00
218, -26631,59, -24692,40, -12061,92, -23400,33, -10639,47, -4058,29, -21870,11, -20536,04, 0,00, 0,00, 0,00
219, -26632,71, -24684,53, -12058,48, -23399,77, -10640,15, -4064,26, -21863,11, -20540,13, 0,00, 0,00, 0,00
220, -26625,40, -24676,71, -12076,36, -23394,63, -10641,80, -4072,33, -21872,25, -20522,41, 0,00, 0,00, 0,00
221, -26618,60, -24670,54, -12067,71, -23396,71, -10640,26, -4040,50, -21873,71, -20526,52, 0,00, 0,00, 0,00
222, -26615,18, -24669,71, -12051,64, -23401,92, -10645,02, -4032,19, -21866,31, -20559,38, 0,00, 0,00, 0,00
223, -26602,80, -24658,49, -12052,89, -23393,76, -10640,86, -4059,05, -21864,28, -20562,60, 0,00, 0,00, 0,00
224, -26594,42, -24647,33, -12055,55, -23385,00, -10630,51, -4075,55, -21854,93, -20534,44, 0,00, 0,00, 0,00
225, -26594,37, -24647,09, -12057,58, -23387,81, -10630,76, -4073,52, -21851,76, -20531,19, -0,09, 0,98, 0,23
226, -26592,18, -24651,65, -12049,98, -23385,09, -10625,33, -4044,41, -21850,35, -20512,96, 0,00, 0,00, 0,00
227, -26593,90, -24649,44, -12034,38, -23389,24, -10634,22, -4032,70, -21888,44, -20518,88, 0,00, 0,00, 0,00
228, -26590,10, -24641,99, -12034,02, -23388,08, -10635,67, -4054,38, -21894,81, -20536,38, 0,00, 0,00, 0,00
229, -26592,27, -24640,36, -12028,46, -23390,85, -10630,27, -4063,23, -21851,91, -20548,61, 0,00, 0,00, 0,00
230, -26584,90, -24634,42, -12056,02, -23388,82, -10632,70, -4083,84, -21849,16, -20536,87, 0,00, 0,00, 0,00
231, -26573,74, -24628,22, -12075,48, -23382,70, -10625,30, -4074,81, -21843,82, -20520,29, 0,00, 0,00, 0,00
232, -26570,50, -24624,89, -12037,02, -23379,86, -10619,89, -4036,26, -21842,82, -20510,16, 0,00, 0,00, 0,00
233, -26572,78, -24621,52, -12027,21, -23379,68, -10621,19, -4048,59, -21857,86, -20520,35, 0,00, 0,00, 0,00
234, -26565,63, -24617,54, -12041,58, -23377,71, -10620,92, -4070,01, -21863,29, -20521,07, 0,00, 0,00, 0,00
235, -26553,71, -24612,85, -12069,61, -23374,89, -10617,88, -4091,53, -21852,88, -20526,86, -0,08, 0,98, 0,23
236, -26556,91, -24609,07, -12067,30, -23381,55, -10619,42, -4065,58, -21864,90, -20522,16, 0,00, 0,00, 0,00
237, -26555,35, -24604,38, -12057,83, -23383,95, -10617,32, -4057,89, -21852,92, -20523,64, 0,00, 0,00, 0,00
238, -26551,21, -24598,83, -12045,58, -23382,54, -10611,80, -4067,26, -21846,42, -20530,32, 0,00, 0,00, 0,00
239, -26549,96, -24599,39, -12027,34, -23386,88, -10613,08, -4062,14, -21838,70, -20526,14, 0,00, 0,00, 0,00
240, -26544,62, -24595,34, -12050,00, -23388,89, -10623,87, -4078,86, -21848,31, -20529,38, 0,00, 0,00, 0,00
241, -26538,16, -24587,41, -12062,25, -23385,89, -10630,13, -4070,16, -21875,25, -20541,83, 0,00, 0,00, 0,00
242, -26532,28, -24584,50, -12055,01, -23381,35, -10630,44, -4067,30, -21887,39, -20542,39, 0,00, 0,00, 0,00
243, -26524,03, -24582,07, -12035,94, -23379,32, -10626,04, -4069,16, -21853,86, -20536,94, 0,00, 0,00, 0,00
244, -26512,23, -24569,73, -12038,02, -23373,98, -10624,95, -4082,23, -21853,72, -20512,42, -0,08, 0,98, 0,24
245, -26505,17, -24561,91, -12045,29, -23368,66, -10622,20, -4085,54, -21851,31, -20507,14, 0,00, 0,00, 0,00
246, -26502,69, -24556,16, -12043,79, -23367,34, -10628,68, -4059,28, -21875,05, -20519,01, 0,00, 0,00, 0,00
247, -26502,17, -24547,38, -12029,02, -23368,84, -10637,24, -4047,83, -21896,60, -20514,41, 0,00, 0,00, 0,00
248, -26498,69, -24548,70, -12020,81, -23371,81, -10643,39, -4061,69, -21892,91, -20526,19, 0,00, 0,00, 0,00
249, -26495,62, -24543,44, -12021,15, -23366,67, -10632,97, -4073,83, -21849,95, -20533,59, 0,00, 0,00, 0,00
250, -26489,88, -24532,65, -12034,58, -23361,13, -10627,61, -4081,96, -21826,14, -20528,51, 0,00, 0,00, 0,00
251, -26487,08, -24527,84, -12042,49, -23363,36, -10631,00, -4071,12, -21847,49, -20529,07, 0,00, 0,00, 0,00
252, -26487,69, -24529,09, -12028,43, -23368,23, -10633,98, -4064,28, -21861,03, -20526,10, 0,00, 0,00, 0,00
253, -26483,80, -24530,64, -12023,36, -23367,70, -10634,65, -4083,24, -21861,50, -20526,90, 0,00, 0,00, 0,00
254, -26480,63, -24529,76, -12015,11, -23366,27, -10630,96, -4085,07, -21853,34, -20514,99, -0,09, 0,98, 0,23
255, -26477,61, -24526,61, -12032,64, -23365,48, -10629,30, -4099,44, -21848,29, -20525,85, 0,00, 0,00, 0,00
0, -26471,10, -24521,36, -12045,11, -23361,39, -10625,84, -4090,15, -21855,60, -20540,94, 0,00, 0,00, 0,00
1, -26469,99, -24519,51, -12025,82, -23360,75, -10622,60, -4077,11, -21852,76, -20542,46, 0,00, 0,00, 0,00
2, -26471,39, -24521,03, -12008,45, -23361,84, -10620,81, -4082,68, -21849,81, -20551,47, 0,00, 0,00, 0,00
3, -26467,04, -24523,48, -12008,05, -23363,05, -10619,22, -4089,52, -21852,36, -20538,50, 0,00, 0,00, 0,00
4, -26462,50, -24520,78, -12033,55, -23360,86, -10618,67, -4104,36, -21851,15, -20538,50, 0,00, 0,00, 0,00
5, -26466,14, -24519,51, -12044,04, -23359,36, -10614,49, -4087,40, -21845,86, -20526,70, 0,00, 0,00, 0,00
6, -26462,86, -24520,58, -12022,09, -23359,52, -10612,38, -4066,70, -21853,01, -20508,11, 0,00, 0,00, 0,00
7, -26460,80, -24519,13, -11997,03, -23359,61, -10610,06, -4062,43, -21850,42, -20513,47, 0,00, 0,00, 0,00
8, -26456,06, -24510,30, -12010,22, -23359,20, -10611,18, -4083,08, -21843,22, -20513,80, -0,09, 0,97, 0,23
9, -26454,92, -24505,38, -12029,73, -23362,89, -10615,92, -4093,92, -21862,82, -20508,04, 0,00, 0,00, 0,00
10, -26453,71, -24502,79, -12030,47, -23369,20, -10617,35, -4068,04, -21857,57, -20532,38, 0,00, 0,00, 0,00
11, -26447,77, -24501,29, -12027,41, -23371,83, -10613,28, -4065,45, -21831,57, -20535,60, 0,00, 0,00, 0,00
12, -26443,95, -24500,26, -12023,03, -23369,89, -10609,59, -4077,54, -21837,32, -20481,15, 0,00, 0,00, 0,00
13, -26445,62, -24499,77, -12007,33, -23375,03, -10612,36, -4071,62, -21857,88, -20488,70, 0,00, 0,00, 0,00
14, -26438,42, -24494,18, -12029,73, -23375,23, -10620,63, -4087,64, -21876,68, -20515,30, 0,00, 0,00, 0,00
15, -26435,70, -24485,82, -12033,93, -23372,28, -10617,26, -4067,48, -21867,31, -20504,51, 0,00, 0,00, 0,00
16, -26440,03, -24483,52, -12015,98, -23373,75, -10618,96, -4051,66, -21861,53, -20498,14, 0,00, 0,00, 0,00
17, -26438,22, -24485,58, -11999,22, -23381,40, -10624,25, -4057,67, -21869,44, -20509,47, 0,00, 0,00, 0,00
18, -26432,14, -24485,58, -12010,46, -23382,14, -10626,85, -4080,71, -21893,89, -20539,60, -0,10, 0,97, 0,23
19, -26435,25, -24485,75, -12030,45, -23380,06, -10627,52, -4094,71, -21909,71, -20561,39, 0,00, 0,00, 0,00
20, -26437,62, -24482,45, -12039,07, -23374,67, -10619,56, -4076,40, -21884,23, -20527,10, 0,00, 0,00, 0,00
21, -26440,01, -24479,90, -12012,05, -23377,71, -10619,34, -4049,64, -21845,86, -20519,68, 0,00, 0,00, 0,00
22, -26433,66, -24471,90, -12017,77, -23373,84, -10624,72, -4075,21, -21865,41, -20533,61, 0,00, 0,00, 0,00
23, -26431,81, -24470,49, -12017,86, -23367,88, -10623,58, -4086,48, -21886,54, -20525,52, 0,00, 0,00, 0,00
24, -26433,93, -24471,16, -12027,74, -23367,56, -10625,21, -4089,50, -21880,14, -20521,87, 0,00, 0,00, 0,00
25, -26431,36, -24473,39, -12042,31, -23370,11, -10629,28, -4077,61, -21874,60, -20533,36, 0,00, 0,00, 0,00
26, -26437,15, -24479,58, -12023,83, -23376,57, -10629,75, -4059,79, -21868,63, -20543,38, 0,00, 0,00, 0,00
27, -26436,10, -24473,17, -12025,33, -23370,34, -10628,23, -4080,06, -21871,11, -20555,49, 0,00, 0,00, 0,00
28, -26436,97, -24474,24, -12020,95, -23368,46, -10620,70, -4080,62, -21860,83, -20535,35, -0,08, 0,97, 0,23
29, -26438,71, -24476,81, -12032,14, -23371,07, -10624,23, -4078,57, -21866,62, -20513,87, 0,00, 0,00, 0,00
30, -26437,69, -24468,68, -12046,70, -23368,01, -10622,22, -4063,73, -21858,42, -20504,86, 0,00, 0,00, 0,00
31, -26431,96, -24466,35, -12036,21, -23367,74, -10622,04, -4053,98, -21864,41, -20498,49, 0,00, 0,00, 0,00
32, -26428,77, -24477,64, -12025,15, -23370,85, -10625,95, -4060,57, -21880,05, -20516,42, 0,00, 0,00, 0,00
33, -26431,05, -24487,05, -12025,95, -23372,97, -10626,78, -4064,31, -21868,37, -20523,93, 0,00, 0,00, 0,00
34, -26440,55, -24485,26, -12031,56, -23371,81, -10625,59, -4056,62, -21864,59, -20516,44, 0,00, 0,00, 0,00
35, -26441,80, -24485,35, -12031,16, -23370,11, -10622,08, -4026,09, -21871,79, -20513,49, 0,00, 0,00, 0,00
36, -26436,66, -24477,42, -12037,64, -23363,65, -10617,88, -4029,53, -21866,42, -20513,40, 0,00, 0,00, 0,00
37, -26432,37, -24475,20, -12030,40, -23361,19, -10612,52, -4041,66, -21856,45, -20508,22, 0,00, 0,00, 0,00
38, -26435,21, -24482,94, -12018,89, -23367,07, -10615,94, -4039,56, -21882,63, -20516,46, -0,08, 0,97, 0,23
39, -26439,23, -24487,95, -12025,33, -23369,69, -10615,83, -4036,66, -21871,74, -20519,28, 0,00, 0,00, 0,00
40, -26433,89, -24482,47, -12027,52, -23361,13, -10611,62, -4007,87, -21862,84, -20506,41, 0,00, 0,00, 0,00
41, -26428,90, -24474,89, -12037,11, -23355,67, -10612,03, -4016,03, -21871,27, -20507,93, 0,00, 0,00, 0,00
42, -26426,71, -24471,05, -12037,58, -23354,78, -10607,94, -4035,43, -21868,07, -20504,95, 0,00, 0,00, 0,00
43, -26430,09, -24473,04, -12035,34, -23355,78, -10604,92, -4035,96, -21862,67, -20492,21, 0,00, 0,00, 0,00
44, -26427,09, -24468,95, -12050,36, -23355,72, -10611,80, -4037,66, -21882,18, -20496,41, 0,00, 0,00, 0,00
45, -26429,39, -24469,64, -12057,83, -23359,18, -10616,16, -4016,16, -21894,85, -20501,44, 0,00, 0,00, 0,00
46, -26425,26, -24461,93, -12054,45, -23355,61, -10613,57, -4014,86, -21865,64, -20513,85, 0,00, 0,00, 0,00
47, -26424,16, -24465,15, -12042,43, -23354,49, -10608,32, -4022,80, -21850,04, -20516,24, 0,00, 0,00, 0,00
48, -26428,48, -24474,09, -12044,66, -23359,74, -10610,31, -4032,95, -21858,78, -20517,27, -0,09, 0,98, 0,23
49, -26433,42, -24479,09, -12068,15, -23364,59, -10613,35, -4048,77, -21855,80, -20517,54, 0,00, 0,00, 0,00
50, -26442,31, -24477,44, -12066,08, -23367,27, -10613,99, -4022,02, -21861,44, -20501,49, 0,00, 0,00, 0,00
51, -26442,43, -24484,01, -12059,59, -23368,75, -10621,19, -4016,70, -21880,52, -20520,85, 0,00, 0,00, 0,00
52, -26440,17, -24481,33, -12040,10, -23363,00, -10614,08, -4016,88, -21857,35, -20507,19, 0,00, 0,00, 0,00
53, -26439,45, -24472,99, -12027,29, -23365,64, -10615,76, -4010,44, -21860,05, -20491,23, 0,00, 0,00, 0,00
54, -26438,80, -24482,78, -12047,39, -23369,96, -10624,48, -4017,61, -21874,91, -20500,95, 0,00, 0,00, 0,00
55, -26443,59, -24490,29, -12059,97, -23373,08, -10630,42, -4000,31, -21873,80, -20504,28, 0,00, 0,00, 0,00
56, -26437,96, -24476,14, -12056,51, -23368,84, -10631,07, -3995,91, -21876,75, -20501,22, 0,00, 0,00, 0,00
57, -26434,63, -24472,75, -12035,41, -23370,04, -10630,33, -3995,42, -21878,69, -20496,48, 0,00, 0,00, 0,00
58, -26434,60, -24474,76, -12041,02, -23366,45, -10626,09, -4007,42, -21874,36, -20497,82, -0,08, 0,98, 0,24
59, -26427,90, -24471,74, -12074,17, -23360,93, -10620,39, -4031,61, -21856,56, -20506,29, 0,00, 0,00, 0,00
60, -26430,82, -24475,29, -12085,61, -23365,66, -10622,84, -4018,58, -21862,67, -20512,37, 0,00, 0,00, 0,00
61, -26438,87, -24482,22, -12061,00, -23371,23, -10628,19, -3996,54, -21882,89, -20504,86, 0,00, 0,00, 0,00
62, -26439,41, -24484,61, -12050,63, -23372,19, -10632,81, -4007,06, -21900,75, -20513,18, 0,00, 0,00, 0,00
63, -26435,56, -24480,23, -12050,74, -23370,02, -10629,19, -4016,38, -21876,61, -20519,30, 0,00, 0,00, 0,00
64, -26434,20, -24469,37, -12052,75, -23363,81, -10618,60, -4010,60, -21839,53, -20487,92, 0,00, 0,00, 0,00
65, -26440,08, -24471,67, -12062,05, -23366,65, -10620,48, -3992,36, -21839,80, -20486,00, 0,00, 0,00, 0,00
66, -26437,96, -24470,26, -12060,04, -23368,01, -10628,32, -3993,50, -21857,26, -20508,06, 0,00, 0,00, 0,00
67, -26437,22, -24464,81, -12053,00, -23365,26, -10628,21, -4010,24, -21868,81, -20514,68, -0,08, 0,98, 0,23
68, -26434,31, -24467,09, -12035,39, -23365,64, -10628,70, -4003,62, -21873,28, -20509,58, 0,00, 0,00, 0,00
69, -26425,44, -24464,52, -12050,74, -23360,88, -10627,61, -4016,54, -21881,71, -20511,99, 0,00, 0,00, 0,00
70, -26433,73, -24466,26, -12059,62, -23363,43, -10628,52, -4004,87, -21884,62, -20521,16, 0,00, 0,00, 0,00
71, -26430,98, -24461,95, -12048,33, -23357,51, -10622,22, -3994,55, -21861,99, -20508,71, 0,00, 0,00, 0,00
72, -26429,48, -24460,72, -12027,96, -23356,32, -10617,95, -4001,12, -21847,98, -20510,74, 0,00, 0,00, 0,00
73, -26430,80, -24462,64, -12025,06, -23359,20, -10623,02, -4012,85, -21869,33, -20518,97, 0,00, 0,00, 0,00
74, -26429,28, -24466,22, -12038,47, -23361,62, -10626,56, -4021,68, -21875,90, -20530,05, 0,00, 0,00, 0,00
75, -26425,51, -24462,42, -12040,79, -23357,95, -10619,56, -4001,36, -21853,43, -20515,23, 0,00, 0,00, 0,00
76, -26425,71, -24462,26, -12043,05, -23356,72, -10624,41, -4004,61, -21873,48, -20490,56, 0,00, 0,00, 0,00
77, -26423,94, -24464,56, -12024,88, -23356,72, -10626,85, -4008,83, -21888,66, -20488,97, -0,08, 0,97, 0,22
78, -26423,00, -24462,22, -12031,27, -23352,52, -10622,08, -4026,78, -21867,31, -20504,57, 0,00, 0,00, 0,00
79, -26420,61, -24460,23, -12047,39, -23350,40, -10617,91, -4036,39, -21853,46, -20509,00, 0,00, 0,00, 0,00
80, -26423,45, -24458,87, -12038,25, -23349,73, -10609,93, -3997,45, -21838,97, -20483,47, 0,00, 0,00, 0,00
81, -26423,94, -24457,48, -12022,80, -23352,90, -10616,63, -3978,59, -21852,56, -20478,62, 0,00, 0,00, 0,00
82, -26416,74, -24451,09, -12025,82, -23350,08, -10616,99, -3999,40, -21859,29, -20491,74, 0,00, 0,00, 0,00
83, -26421,59, -24454,01, -12020,25, -23356,03, -10617,17, -4002,62, -21852,36, -20499,79, 0,00, 0,00, 0,00
84, -26417,03, -24455,76, -12031,16, -23355,20, -10616,59, -4005,48, -21848,58, -20505,85, 0,00, 0,00, 0,00
85, -26411,92, -24450,06, -12040,71, -23356,81, -10616,56, -3989,50, -21849,41, -20513,42, 0,00, 0,00, 0,00
86, -26415,60, -24450,06, -12039,34, -23358,15, -10616,79, -3989,92, -21846,42, -20516,24, 0,00, 0,00, 0,00
87, -26421,30, -24450,55, -12011,51, -23357,79, -10613,12, -3984,60, -21854,42, -20516,73, -0,09, 0,98, 0,22
88, -26421,50, -24452,74, -12001,63, -23362,87, -10620,41, -3985,81, -21876,61, -20513,29, 0,00, 0,00, 0,00
89, -26409,08, -24451,56, -12027,34, -23354,38, -10620,57, -4007,76, -21884,17, -20505,94, 0,00, 0,00, 0,00
90, -26414,04, -24455,18, -12031,72, -23352,79, -10615,47, -3990,10, -21868,41, -20501,69, 0,00, 0,00, 0,00
91, -26417,21, -24452,23, -12013,19, -23354,49, -10619,18, -3975,46, -21877,60, -20493,06, 0,00, 0,00, 0,00
92, -26414,46, -24446,37, -11999,73, -23353,30, -10616,52, -3984,35, -21854,69, -20501,51, 0,00, 0,00, 0,00
93, -26412,83, -24445,92, -12003,98, -23355,83, -10618,15, -4000,43, -21858,82, -20530,28, 0,00, 0,00, 0,00
94, -26403,31, -24441,52, -12034,54, -23354,38, -10624,14, -4028,81, -21884,41, -20543,44, 0,00, 0,00, 0,00
95, -26417,79, -24455,13, -12029,51, -23360,30, -10627,09, -4001,83, -21891,32, -20531,95, 0,00, 0,00, 0,00
96, -26421,73, -24449,48, -12015,09, -23352,92, -10624,07, -3984,40, -21877,89, -20486,87, 0,00, 0,00, 0,00
97, -26413,88, -24444,36, -12003,60, -23351,40, -10620,19, -3995,84, -21852,21, -20493,49, -0,09, 0,98, 0,22
98, -26410,53, -24442,35, -12012,92, -23346,60, -10616,68, -4016,52, -21835,84, -20502,52, 0,00, 0,00, 0,00
99, -26414,22, -24444,80, -12027,63, -23348,52, -10618,96, -4024,70, -21848,09, -20520,64, 0,00, 0,00, 0,00
100, -26410,73, -24444,67, -12042,49, -23343,20, -10616,25, -4012,72, -21846,28, -20512,08, 0,00, 0,00, 0,00
101, -26412,81, -24444,29, -12037,96, -23339,18, -10612,09, -4005,57, -21849,32, -20489,91, 0,00, 0,00, 0,00
102, -26414,33, -24442,44, -12027,63, -23341,43, -10611,02, -4017,19, -21862,08, -20490,56, 0,00, 0,00, 0,00
103, -26416,14, -24457,77, -12017,79, -23345,35, -10610,75, -4018,64, -21858,80, -20506,07, 0,00, 0,00, 0,00
104, -26414,38, -24460,63, -12027,05, -23344,12, -10614,40, -4022,84, -21865,19, -20503,72, 0,00, 0,00, 0,00
105, -26412,97, -24454,62, -12028,43, -23342,31, -10613,43, -3996,29, -21868,61, -20485,75, 0,00, 0,00, 0,00
106, -26414,87, -24456,59, -12009,46, -23345,10, -10616,12, -3977,76, -21869,55, -20490,51, 0,00, 0,00, 0,00
107, -26415,09, -24456,16, -11978,17, -23346,87, -10611,47, -3967,86, -21853,23, -20493,06, -0,09, 0,97, 0,22
108, -26416,68, -24457,81, -11985,99, -23352,14, -10615,27, -3986,19, -21859,49, -20514,03, 0,00, 0,00, 0,00
109, -26415,78, -24460,34, -12007,36, -23356,34, -10620,05, -4000,98, -21868,37, -20517,54, 0,00, 0,00, 0,00
110, -26415,02, -24457,08, -12022,00, -23357,97, -10619,69, -3991,17, -21863,56, -20513,78, 0,00, 0,00, 0,00
111, -26417,68, -24458,42, -12009,23, -23355,67, -10618,87, -3977,18, -21865,68, -20513,22, 0,00, 0,00, 0,00
112, -26414,98, -24449,48, -12001,88, -23349,06, -10617,84, -3994,01, -21870,55, -20522,23, 0,00, 0,00, 0,00
113, -26407,18, -24436,63, -12015,49, -23345,55, -10620,92, -4021,88, -21883,74, -20531,24, 0,00, 0,00, 0,00
114, -26418,00, -24450,15, -12017,62, -23349,84, -10619,00, -4017,41, -21882,31, -20524,00, 0,00, 0,00, 0,00
115, -26429,86, -24468,05, -12012,41, -23355,94, -10624,03, -3986,61, -21887,52, -20517,63, 0,00, 0,00, 0,00
116, -26429,55, -24463,07, -12010,40, -23357,93, -10628,72, -3987,71, -21896,95, -20528,65, 0,00, 0,00, 0,00
117, -26422,53, -24445,23, -12006,55, -23352,68, -10627,83, -4007,69, -21888,57, -20519,10, -0,09, 0,98, 0,23
118, -26416,34, -24448,65, -12002,24, -23349,23, -10623,58, -4014,84, -21863,71, -20493,02, 0,00, 0,00, 0,00
119, -26413,62, -24457,46, -12010,06, -23350,49, -10625,73, -4021,82, -21859,02, -20514,92, 0,00, 0,00, 0,00
120, -26415,51, -24460,34, -12021,35, -23346,02, -10623,31, -4011,85, -21853,52, -20505,94, 0,00, 0,00, 0,00
121, -26419,92, -24466,82, -12002,93, -23354,26, -10624,07, -3997,63, -21844,72, -20509,02, 0,00, 0,00, 0,00
122, -26422,04, -24463,40, -11984,78, -23357,42, -10626,73, -4004,00, -21849,88, -20502,38, 0,00, 0,00, 0,00
123, -26423,40, -24460,61, -11983,69, -23356,25, -10628,52, -4014,40, -21865,46, -20505,67, 0,00, 0,00, 0,00
124, -26425,80, -24463,92, -11991,24, -23361,19, -10632,48, -4017,64, -21872,52, -20527,39, 0,00, 0,00, 0,00
125, -26417,32, -24458,96, -12001,46, -23353,30, -10623,78, -4001,66, -21856,52, -20509,07, 0,00, 0,00, 0,00
126, -26418,35, -24460,32, -11995,44, -23351,00, -10622,08, -3991,44, -21856,18, -20498,29, 0,00, 0,00, 0,00
127, -26426,80, -24461,84, -11992,76, -23358,42, -10631,47, -4007,85, -21883,59, -20518,65, -0,08, 0,98, 0,24
128, -26424,59, -24465,97, -11992,29, -23360,21, -10632,97, -4013,68, -21898,83, -20510,63, 0,00, 0,00, 0,00
129, -26419,58, -24457,52, -12009,88, -23354,02, -10623,54, -4022,02, -21870,67, -20501,73, 0,00, 0,00, 0,00
130, -26427,16, -24463,07, -12003,69, -23363,09, -10626,85, -3988,09, -21856,92, -20510,00, 0,00, 0,00, 0,00
131, -26421,28, -24462,17, -12003,62, -23356,41, -10624,16, -3986,50, -21840,98, -20502,83, 0,00, 0,00, 0,00
132, -26430,27, -24468,52, -11984,07, -23359,67, -10628,41, -3989,21, -21851,56, -20512,46, 0,00, 0,00, 0,00
133, -26427,07, -24464,83, -11980,33, -23358,29, -10630,06, -3992,60, -21856,74, -20517,83, 0,00, 0,00, 0,00
134, -26419,02, -24453,41, -12002,95, -23351,13, -10624,03, -4008,47, -21856,88, -20501,62, 0,00, 0,00, 0,00
135, -26426,33, -24458,44, -12013,41, -23358,55, -10627,38, -3997,70, -21871,34, -20517,76, 0,00, 0,00, 0,00
136, -26422,20, -24456,92, -12004,88, -23358,35, -10629,30, -3994,82, -21870,49, -20531,73, -0,09, 0,97, 0,23
137, -26419,49, -24457,28, -11980,51, -23356,43, -10625,84, -3998,73, -21867,47, -20529,72, 0,00, 0,00, 0,00
138, -26417,79, -24448,38, -11964,69, -23350,44, -10620,50, -3997,23, -21862,58, -20501,49, 0,00, 0,00, 0,00
139, -26412,70, -24440,00, -11969,00, -23347,36, -10616,61, -3999,42, -21852,65, -20494,27, 0,00, 0,00, 0,00
140, -26420,90, -24450,88, -11975,06, -23350,67, -10621,10, -3985,41, -21860,92, -20512,57, 0,00, 0,00, 0,00
141, -26426,44, -24452,45, -11963,88, -23345,35, -10618,84, -3974,68, -21852,03, -20503,23, 0,00, 0,00, 0,00
142, -26420,54, -24442,95, -11966,36, -23344,65, -10621,88, -3998,24, -21847,91, -20495,45, 0,00, 0,00, 0,00
143, -26414,60, -24442,30, -11974,88, -23346,40, -10626,18, -4017,64, -21868,21, -20494,94, 0,00, 0,00, 0,00
144, -26417,06, -24440,94, -11989,18, -23342,02, -10623,45, -4026,42, -21874,62, -20500,97, 0,00, 0,00, 0,00
145, -26419,22, -24438,75, -11984,94, -23338,75, -10617,77, -3996,89, -21858,29, -20485,13, 0,00, 0,00, 0,00
146, -26419,22, -24435,91, -11964,84, -23341,28, -10621,57, -3975,17, -21846,88, -20485,28, -0,09, 0,98, 0,23
147, -26410,28, -24434,72, -11960,15, -23340,67, -10624,59, -3989,25, -21843,91, -20492,95, 0,00, 0,00, 0,00
148, -26411,92, -24439,15, -11959,88, -23342,84, -10627,07, -3998,32, -21859,49, -20487,83, 0,00, 0,00, 0,00
149, -26409,12, -24438,37, -11977,88, -23345,39, -10628,63, -4005,39, -21851,76, -20497,20, 0,00, 0,00, 0,00
150, -26410,51, -24434,72, -11994,44, -23347,22, -10633,19, -3994,95, -21855,83, -20523,39, 0,00, 0,00, 0,00
151, -26409,59, -24430,14, -11980,62, -23346,87, -10633,98, -3981,38, -21860,50, -20528,67, 0,00, 0,00, 0,00
152, -26402,13, -24425,36, -11976,58, -23340,96, -10631,74, -3998,39, -21857,21, -20512,40, 0,00, 0,00, 0,00
153, -26403,36, -24431,91, -11968,00, -23339,89, -10624,77, -3998,15, -21836,22, -20502,74, 0,00, 0,00, 0,00
154, -26407,15, -24439,26, -11970,01, -23341,41, -10625,19, -3992,63, -21838,12, -20495,81, 0,00, 0,00, 0,00
155, -26405,84, -24433,70, -11976,22, -23337,52, -10624,16, -3971,03, -21847,78, -20478,69, 0,00, 0,00, 0,00
156, -26408,94, -24428,64, -11965,13, -23337,14, -10622,60, -3961,71, -21831,08, -20489,75, -0,08, 0,97, 0,23
157, -26410,66, -24426,25, -11959,70, -23335,96, -10624,28, -3980,22, -21842,41, -20500,01, 0,00, 0,00, 0,00
158, -26410,69, -24432,29, -11959,93, -23339,82, -10630,85, -3991,26, -21863,31, -20509,54, 0,00, 0,00, 0,00
159, -26399,29, -24428,82, -11993,48, -23332,83, -10630,89, -4019,56, -21864,23, -20522,63, 0,00, 0,00, 0,00
160, -26398,88, -24423,97, -12010,64, -23329,65, -10624,21, -4017,21, -21848,34, -20518,61, 0,00, 0,00, 0,00
161, -26407,45, -24427,08, -11991,55, -23334,39, -10626,00, -4001,50, -21846,46, -20506,54, 0,00, 0,00, 0,00
162, -26406,44, -24430,25, -11991,46, -23337,10, -10630,74, -4022,82, -21851,53, -20504,69, 0,00, 0,00, 0,00
163, -26398,39, -24422,74, -11997,34, -23330,97, -10620,70, -4039,99, -21847,47, -20481,89, 0,00, 0,00, 0,00
164, -26398,42, -24420,29, -11996,49, -23329,77, -10616,61, -4035,45, -21834,86, -20466,06, 0,00, 0,00, 0,00
165, -26399,78, -24418,16, -12003,04, -23332,40, -10617,28, -4020,25, -21819,37, -20475,74, 0,00, 0,00, 0,00
166, -26401,72, -24426,48, -11985,09, -23336,18, -10618,98, -4009,61, -21827,35, -20494,47, -0,08, 0,97, 0,24
167, -26403,56, -24429,05, -11949,55, -23334,35, -10618,00, -4001,50, -21835,35, -20501,56, 0,00, 0,00, 0,00
168, -26404,32, -24426,92, -11947,41, -23333,81, -10623,58, -4009,17, -21855,94, -20496,04, 0,00, 0,00, 0,00
169, -26407,04, -24428,53, -11976,35, -23337,30, -10633,31, -4030,04, -21889,02, -20506,21, 0,00, 0,00, 0,00
170, -26409,46, -24435,64, -11985,59, -23340,61, -10629,91, -4012,56, -21862,96, -20511,59, 0,00, 0,00, 0,00
171, -26410,62, -24438,75, -11972,87, -23340,79, -10625,97, -4000,27, -21843,26, -20511,68, 0,00, 0,00, 0,00
172, -26414,38, -24442,68, -11965,47, -23343,00, -10628,57, -4011,49, -21846,53, -20526,81, 0,00, 0,00, 0,00
173, -26412,21, -24444,85, -11973,18, -23342,98, -10626,58, -4029,51, -21847,29, -20545,12, 0,00, 0,00, 0,00
174, -26423,34, -24453,03, -11962,72, -23348,01, -10626,09, -4014,06, -21848,20, -20529,16, 0,00, 0,00, 0,00
175, -26415,49, -24447,87, -11961,20, -23336,16, -10618,75, -3984,82, -21840,38, -20489,49, 0,00, 0,00, 0,00
176, -26410,06, -24441,86, -11974,41, -23332,78, -10620,59, -3996,18, -21848,11, -20519,01, -0,09, 0,97, 0,24
177, -26405,59, -24438,81, -11964,73, -23330,91, -10616,90, -4007,94, -21844,20, -20516,49, 0,00, 0,00, 0,00
178, -26409,72, -24434,86, -11948,97, -23332,00, -10614,64, -3999,91, -21834,03, -20484,39, 0,00, 0,00, 0,00
179, -26410,02, -24438,01, -11971,15, -23337,66, -10623,56, -4014,98, -21837,03, -20491,05, 0,00, 0,00, 0,00
180, -26413,59, -24441,95, -11985,81, -23340,50, -10627,14, -4007,47, -21846,59, -20492,46, 0,00, 0,00, 0,00
181, -26406,73, -24431,42, -11979,48, -23325,65, -10618,02, -3998,21, -21843,62, -20456,63, 0,00, 0,00, 0,00
182, -26407,91, -24433,38, -11954,03, -23322,41, -10612,25, -3995,93, -21832,80, -20468,41, 0,00, 0,00, 0,00
183, -26409,14, -24436,58, -11950,27, -23323,87, -10612,23, -4004,47, -21823,77, -20486,24, 0,00, 0,00, 0,00
184, -26408,56, -24439,15, -11967,24, -23322,05, -10610,95, -4016,63, -21821,70, -20489,87, 0,00, 0,00, 0,00
185, -26412,14, -24439,96, -11976,98, -23322,68, -10611,65, -4004,52, -21823,73, -20481,28, 0,00, 0,00, 0,00
186, -26408,79, -24431,93, -11965,16, -23323,46, -10612,27, -3993,72, -21825,61, -20482,40, -0,09, 0,97, 0,23
187, -26403,73, -24431,55, -11949,40, -23321,81, -10610,98, -4003,13, -21828,53, -20493,91, 0,00, 0,00, 0,00
188, -26408,61, -24445,05, -11958,61, -23325,99, -10617,95, -4024,68, -21848,74, -20504,64, 0,00, 0,00, 0,00
189, -26410,82, -24444,34, -11973,05, -23331,13, -10620,41, -4036,43, -21853,66, -20502,74, 0,00, 0,00, 0,00
190, -26405,86, -24434,52, -11990,06, -23330,53, -10618,31, -4032,79, -21838,48, -20517,65, 0,00, 0,00, 0,00
191, -26411,98, -24439,71, -11968,55, -23332,74, -10613,43, -4016,09, -21835,29, -20514,27, 0,00, 0,00, 0,00
192, -26412,99, -24438,88, -11937,82, -23332,94, -10614,26, -4011,45, -21843,49, -20516,42, 0,00, 0,00, 0,00
193, -26410,40, -24431,71, -11947,88, -23329,43, -10616,34, -4028,70, -21854,51, -20504,75, 0,00, 0,00, 0,00
194, -26406,04, -24425,52, -11959,90, -23328,00, -10614,20, -4034,62, -21849,92, -20486,71, 0,00, 0,00, 0,00
195, -26403,09, -24428,49, -11971,53, -23322,41, -10612,18, -4022,76, -21849,52, -20473,21, 0,00, 0,00, 0,00
196, -26404,05, -24428,87, -11973,65, -23322,57, -10616,79, -4026,26, -21862,38, -20486,65, -0,08, 0,97, 0,23
197, -26401,23, -24424,69, -11967,86, -23322,50, -10612,79, -4046,94, -21845,54, -20519,75, 0,00, 0,00, 0,00
198, -26402,19, -24430,48, -11971,10, -23328,20, -10612,99, -4062,92, -21820,02, -20532,29, 0,00, 0,00, 0,00
199, -26404,36, -24435,82, -11986,44, -23326,84, -10611,38, -4072,89, -21809,18, -20501,58, 0,00, 0,00, 0,00
200, -26404,34, -24434,84, -11992,65, -23321,25, -10606,91, -4051,41, -21806,76, -20489,31, 0,00, 0,00, 0,00
201, -26405,90, -24436,42, -11972,31, -23324,40, -10609,50, -4028,99, -21826,30, -20490,56, 0,00, 0,00, 0,00
202, -26402,42, -24431,04, -11961,58, -23324,18, -10610,13, -4040,12, -21830,37, -20491,70, 0,00, 0,00, 0,00
203, -26404,85, -24432,54, -11972,38, -23322,88, -10609,32, -4058,43, -21824,06, -20478,13, 0,00, 0,00, 0,00
204, -26406,73, -24432,18, -11984,42, -23316,67, -10606,10, -4057,65, -21826,61, -20456,45, 0,00, 0,00, 0,00
205, -26403,09, -24431,89, -11994,37, -23312,64, -10605,99, -4036,57, -21816,33, -20462,71, 0,00, 0,00, 0,00
206, -26409,90, -24439,60, -11985,43, -23320,00, -10614,31, -4021,77, -21826,41, -20478,76, -0,08, 0,97, 0,22
207, -26415,16, -24441,43, -11959,99, -23324,04, -10619,51, -4018,89, -21847,51, -20498,38, 0,00, 0,00, 0,00
208, -26408,07, -24430,46, -11959,88, -23324,09, -10623,85, -4031,00, -21869,48, -20520,60, 0,00, 0,00, 0,00
209, -26396,87, -24427,17, -12003,87, -23320,11, -10621,12, -4067,84, -21841,95, -20531,17, 0,00, 0,00, 0,00
210, -26396,63, -24425,56, -12002,71, -23312,85, -10607,38, -4040,90, -21808,08, -20482,15, 0,00, 0,00, 0,00
211, -26411,65, -24430,70, -11967,71, -23319,48, -10610,73, -4007,53, -21812,44, -20473,15, 0,00, 0,00, 0,00
212, -26411,76, -24436,60, -11952,30, -23322,66, -10615,20, -4017,19, -21823,30, -20486,54, 0,00, 0,00, 0,00
213, -26402,30, -24434,03, -11963,41, -23318,32, -10612,88, -4039,59, -21819,12, -20489,96, 0,00, 0,00, 0,00
214, -26403,02, -24431,17, -11981,12, -23320,89, -10613,30, -4055,14, -21824,98, -20494,27, 0,00, 0,00, 0,00
215, -26401,57, -24429,94, -11996,02, -23323,35, -10614,73, -4051,28, -21833,65, -20499,79, -0,08, 0,98, 0,23
216, -26401,81, -24429,09, -11988,58, -23316,62, -10610,13, -4047,34, -21825,92, -20507,97, 0,00, 0,00, 0,00
217, -26407,24, -24435,69, -11973,72, -23322,23, -10613,10, -4057,27, -21843,40, -20521,56, 0,00, 0,00, 0,00
218, -26413,66, -24440,71, -11958,21, -23330,91, -10613,21, -4053,31, -21847,29, -20500,62, 0,00, 0,00, 0,00
219, -26405,41, -24431,17, -11970,79, -23324,36, -10608,23, -4058,70, -21831,69, -20485,51, 0,00, 0,00, 0,00
220, -26411,36, -24434,88, -11971,50, -23328,87, -10608,58, -4033,84, -21829,50, -20478,80, 0,00, 0,00, 0,00
221, -26411,58, -24435,46, -11976,78, -23330,73, -10612,23, -4034,15, -21832,89, -20481,89, 0,00, 0,00, 0,00
222, -26407,65, -24428,02, -11977,50, -23325,74, -10609,30, -4054,23, -21821,85, -20477,46, 0,00, 0,00, 0,00
223, -26404,34, -24419,55, -11969,54, -23322,08, -10601,07, -4058,83, -21806,12, -20470,80, 0,00, 0,00, 0,00
224, -26402,64, -24426,03, -11965,60, -23325,70, -10600,52, -4046,65, -21800,64, -20460,43, 0,00, 0,00, 0,00
225, -26403,00, -24434,30, -11978,54, -23329,61, -10609,50, -4024,90, -21822,25, -20463,89, -0,09, 0,98, 0,22
226, -26399,33, -24430,39, -11985,34, -23328,27, -10610,31, -4021,48, -21837,72, -20465,64, 0,00, 0,00, 0,00
227, -26399,15, -24429,99, -11965,92, -23328,60, -10606,64, -4022,98, -21839,93, -20476,79, 0,00, 0,00, 0,00
228, -26407,71, -24433,25, -11962,81, -23332,47, -10606,48, -4025,24, -21825,79, -20485,60, 0,00, 0,00, 0,00
229, -26413,30, -24439,31, -11976,60, -23333,81, -10609,81, -4028,30, -21839,84, -20488,55, 0,00, 0,00, 0,00
230, -26412,43, -24434,46, -11983,06, -23335,04, -10610,80, -4006,48, -21854,89, -20471,45, 0,00, 0,00, 0,00
231, -26413,53, -24429,58, -11979,04, -23338,08, -10609,52, -4000,47, -21831,37, -20469,71, 0,00, 0,00, 0,00
232, -26406,60, -24424,51, -11971,97, -23336,14, -10606,39, -4013,01, -21825,49, -20470,71, 0,00, 0,00, 0,00
233, -26401,92, -24416,42, -11982,03, -23336,27, -10607,38, -4032,01, -21832,56, -20487,83, 0,00, 0,00, 0,00
234, -26406,15, -24415,86, -11992,96, -23340,27, -10611,87, -4038,83, -21847,53, -20503,05, 0,00, 0,00, 0,00
235, -26407,91, -24422,32, -12002,08, -23340,61, -10611,74, -4024,25, -21844,02, -20498,72, -0,09, 0,98, 0,22
236, -26400,43, -24415,50, -11978,32, -23335,53, -10606,89, -4005,03, -21832,42, -20491,10, 0,00, 0,00, 0,00
237, -26400,14, -24406,34, -11954,58, -23335,64, -10608,61, -4005,79, -21836,07, -20493,89, 0,00, 0,00, 0,00
238, -26399,73, -24407,25, -11959,64, -23330,19, -10608,58, -4019,89, -21843,82, -20480,59, 0,00, 0,00, 0,00
239, -26407,38, -24415,90, -11972,38, -23328,52, -10610,75, -4022,60, -21849,14, -20462,78, 0,00, 0,00, 0,00
240, -26405,12, -24418,45, -11976,13, -23322,61, -10603,31, -4000,76, -21825,16, -20450,01, 0,00, 0,00, 0,00
241, -26409,26, -24426,95, -11969,22, -23329,36, -10608,41, -3994,99, -21826,46, -20476,25, 0,00, 0,00, 0,00
242, -26414,13, -24426,95, -11956,01, -23331,89, -10612,52, -4004,25, -21847,91, -20483,27, 0,00, 0,00, 0,00
243, -26415,42, -24426,01, -11939,23, -23328,56, -10606,39, -3992,63, -21841,95, -20445,19, 0,00, 0,00, 0,00
244, -26408,61, -24418,25, -11969,69, -23323,06, -10603,49, -4011,82, -21832,13, -20440,13, 0,00, 0,00, 0,00
245, -26407,29, -24412,51, -11986,59, -23322,50, -10597,81, -4004,47, -21826,61, -20448,18, -0,09, 0,98, 0,22
246, -26418,31, -24416,24, -11965,45, -23333,66, -10607,62, -3981,16, -21837,47, -20462,26, 0,00, 0,00, 0,00
247, -26411,76, -24416,35, -11955,61, -23334,84, -10614,55, -3988,76, -21856,88, -20485,28, 0,00, 0,00, 0,00
248, -26411,47, -24415,01, -11958,56, -23337,39, -10617,41, -3996,85, -21865,30, -20478,76, 0,00, 0,00, 0,00
249, -26405,77, -24414,50, -11975,33, -23335,24, -10613,43, -4003,69, -21839,64, -20444,60, 0,00, 0,00, 0,00
250, -26409,57, -24414,32, -11994,15, -23336,07, -10609,95, -3995,91, -21822,16, -20448,20, 0,00, 0,00, 0,00
251, -26412,74, -24414,99, -11992,36, -23335,62, -10611,11, -3988,87, -21830,48, -20457,30, 0,00, 0,00, 0,00
252, -26414,15, -24418,77, -11978,32, -23339,11, -10616,34, -3993,56, -21843,29, -20476,19, 0,00, 0,00, 0,00
253, -26412,81, -24417,31, -11981,74, -23335,94, -10616,47, -4005,68, -21834,50, -20503,93, 0,00, 0,00, 0,00
254, -26412,54, -24417,00, -11988,18, -23332,54, -10615,13, -4002,64, -21830,19, -20494,31, 0,00, 0,00, 0,00
255, -26413,90, -24420,82, -11984,67, -23331,46, -10617,50, -3970,25, -21853,48, -20455,56, -0,09, 0,98, 0,23
0, -26409,41, -24417,51, -11965,31, -23329,23, -10615,89, -3947,03, -21850,04, -20440,80, 0,00, 0,00, 0,00
1, -26402,37, -24409,71, -11960,82, -23325,70, -10613,30, -3963,57, -21834,66, -20460,21, 0,00, 0,00, 0,00
2, -26400,56, -24403,68, -11970,68, -23327,26, -10614,53, -3987,48, -21838,03, -20485,87, 0,00, 0,00, 0,00
3, -26399,44, -24402,72, -11993,83, -23328,43, -10621,21, -4006,13, -21861,50, -20498,40, 0,00, 0,00, 0,00
4, -26394,91, -24402,40, -12000,58, -23322,81, -10615,27, -3984,69, -21857,75, -20472,50, 0,00, 0,00, 0,00
5, -26395,38, -24407,97, -11979,01, -23324,51, -10612,63, -3966,74, -21844,83, -20474,13, 0,00, 0,00, 0,00
6, -26395,29, -24414,68, -11965,16, -23328,38, -10618,29, -3980,31, -21855,13, -20512,17, 0,00, 0,00, 0,00
7, -26403,27, -24412,37, -11960,84, -23326,53, -10616,77, -3982,95, -21848,90, -20486,96, 0,00, 0,00, 0,00
8, -26405,50, -24402,76, -11974,46, -23319,73, -10611,69, -3990,66, -21847,35, -20456,54, 0,00, 0,00, 0,00
9, -26407,51, -24410,05, -11970,90, -23323,66, -10608,47, -3960,39, -21837,68, -20442,28, -0,08, 0,97, 0,23
10, -26403,20, -24409,56, -11966,92, -23316,45, -10607,06, -3953,91, -21836,18, -20448,76, 0,00, 0,00, 0,00
11, -26404,99, -24414,72, -11962,27, -23317,21, -10610,95, -3970,47, -21854,24, -20472,01, 0,00, 0,00, 0,00
12, -26398,19, -24413,51, -11971,53, -23313,36, -10606,73, -3988,76, -21843,17, -20465,59, 0,00, 0,00, 0,00
13, -26397,72, -24414,36, -11978,77, -23313,81, -10604,43, -3989,94, -21838,59, -20456,63, 0,00, 0,00, 0,00
14, -26405,63, -24415,14, -11979,91, -23318,93, -10608,92, -3965,07, -21848,63, -20454,13, 0,00, 0,00, 0,00
15, -26409,86, -24414,74, -11977,83, -23320,56, -10614,08, -3959,10, -21862,51, -20465,97, 0,00, 0,00, 0,00
16, -26412,85, -24419,66, -11964,64, -23324,02, -10619,56, -3967,46, -21876,57, -20483,18, 0,00, 0,00, 0,00
17, -26413,12, -24422,83, -11958,00, -23329,54, -10617,46, -3972,55, -21858,49, -20484,08, 0,00, 0,00, 0,00
18, -26402,04, -24413,60, -11984,13, -23321,00, -10616,47, -3996,13, -21851,98, -20472,05, 0,00, 0,00, 0,00
19, -26403,47, -24414,23, -12000,03, -23316,31, -10612,81, -3989,05, -21848,29, -20453,59, -0,08, 0,97, 0,23
20, -26414,49, -24422,79, -11977,63, -23325,23, -10613,14, -3965,45, -21830,86, -20460,09, 0,00, 0,00, 0,00
21, -26413,46, -24417,42, -11960,95, -23326,73, -10619,38, -3971,73, -21846,19, -20465,50, 0,00, 0,00, 0,00
22, -26412,07, -24420,15, -11963,57, -23330,33, -10623,05, -3983,66, -21847,13, -20464,77, 0,00, 0,00, 0,00
23, -26408,99, -24416,73, -11974,19, -23326,03, -10623,02, -3986,32, -21845,39, -20465,95, 0,00, 0,00, 0,00
24, -26407,62, -24419,19, -11980,89, -23325,95, -10623,60, -3965,89, -21836,07, -20482,29, 0,00, 0,00, 0,00
25, -26401,59, -24413,60, -11982,81, -23321,94, -10625,30, -3965,13, -21842,50, -20508,08, 0,00, 0,00, 0,00
26, -26410,73, -24415,57, -11965,47, -23326,68, -10630,69, -3971,61, -21870,91, -20524,04, 0,00, 0,00, 0,00
27, -26411,09, -24421,98, -11940,66, -23329,92, -10630,20, -3960,21, -21872,54, -20506,56, 0,00, 0,00, 0,00
28, -26406,66, -24420,29, -11960,82, -23325,25, -10631,45, -3977,25, -21864,68, -20498,83, -0,08, 0,97, 0,23
29, -26403,11, -24412,26, -11976,42, -23318,48, -10619,85, -3969,36, -21848,07, -20474,29, 0,00, 0,00, 0,00
30, -26405,37, -24413,60, -11973,56, -23318,75, -10619,87, -3963,12, -21853,99, -20467,49, 0,00, 0,00, 0,00
31, -26409,37, -24415,86, -11953,02, -23321,72, -10619,13, -3969,42, -21857,57, -20482,51, 0,00, 0,00, 0,00
32, -26403,42, -24410,76, -11946,45, -23319,31, -10614,04, -3978,95, -21832,18, -20470,84, 0,00, 0,00, 0,00
33, -26395,93, -24404,30, -11966,14, -23314,43, -10611,02, -3993,68, -21822,28, -20454,24, 0,00, 0,00, 0,00
34, -26393,70, -24404,73, -11981,36, -23316,49, -10616,00, -3987,48, -21834,88, -20465,57, 0,00, 0,00, 0,00
35, -26388,60, -24398,65, -11989,74, -23316,98, -10620,88, -4001,50, -21857,10, -20483,27, 0,00, 0,00, 0,00
36, -26393,03, -24401,73, -11968,75, -23321,27, -10621,50, -4006,93, -21859,13, -20488,17, 0,00, 0,00, 0,00
37, -26394,93, -24397,55, -11952,35, -23316,80, -10613,41, -4003,06, -21837,86, -20482,51, 0,00, 0,00, 0,00
38, -26397,01, -24402,99, -11960,89, -23316,67, -10613,70, -4003,51, -21842,79, -20467,20, -0,09, 0,98, 0,23
39, -26395,76, -24406,21, -11970,12, -23318,05, -10612,18, -3985,67, -21837,92, -20467,76, 0,00, 0,00, 0,00
40, -26398,01, -24404,10, -11965,85, -23322,01, -10613,48, -3979,50, -21847,67, -20478,22, 0,00, 0,00, 0,00
41, -26402,08, -24406,94, -11951,05, -23324,09, -10617,73, -3983,68, -21857,99, -20477,24, 0,00, 0,00, 0,00
42, -26395,78, -24408,93, -11943,59, -23322,61, -10616,97, -3986,93, -21853,79, -20484,32, 0,00, 0,00, 0,00
43, -26398,28, -24409,98, -11944,66, -23326,30, -10617,53, -3981,27, -21846,04, -20503,41, 0,00, 0,00, 0,00
44, -26401,14, -24403,12, -11951,54, -23324,29, -10616,90, -3957,87, -21853,79, -20486,36, 0,00, 0,00, 0,00
45, -26397,86, -24397,02, -11951,83, -23321,03, -10618,26, -3949,44, -21844,22, -20485,39, 0,00, 0,00, 0,00
46, -26395,46, -24401,82, -11954,23, -23321,90, -10623,22, -3970,61, -21844,36, -20512,37, 0,00, 0,00, 0,00
47, -26392,20, -24401,13, -11963,86, -23318,03, -10624,83, -3992,07, -21850,42, -20501,18, 0,00, 0,00, 0,00
48, -26394,71, -24405,40, -11961,47, -23320,45, -10628,81, -3985,79, -21847,78, -20505,80, -0,09, 0,97, 0,23
49, -26393,21, -24398,04, -11959,48, -23320,58, -10627,92, -3961,80, -21853,99, -20501,00, 0,00, 0,00, 0,00
50, -26388,98, -24395,74, -11948,64, -23313,85, -10622,40, -3949,93, -21849,32, -20474,78, 0,00, 0,00, 0,00
51, -26394,79, -24405,29, -11946,14, -23319,04, -10629,59, -3971,88, -21858,80, -20498,36, 0,00, 0,00, 0,00
52, -26394,75, -24397,40, -11950,94, -23317,56, -10631,92, -3988,96, -21867,49, -20505,89, 0,00, 0,00, 0,00
53, -26390,03, -24388,30, -11954,18, -23312,73, -10621,48, -3987,93, -21834,35, -20467,54, 0,00, 0,00, 0,00
54, -26389,72, -24399,37, -11954,54, -23318,08, -10623,31, -3965,74, -21823,42, -20456,00, 0,00, 0,00, 0,00
55, -26394,88, -24407,03, -11950,90, -23320,54, -10627,23, -3963,17, -21843,69, -20463,65, 0,00, 0,00, 0,00
56, -26401,21, -24404,33, -11940,12, -23321,85, -10627,45, -3977,05, -21855,63, -20477,37, 0,00, 0,00, 0,00
57, -26398,91, -24405,11, -11940,32, -23323,49, -10623,16, -3993,76, -21837,90, -20478,27, 0,00, 0,00, 0,00
58, -26392,94, -24401,00, -11950,11, -23321,63, -10623,02, -3998,01, -21833,94, -20467,47, -0,08, 0,98, 0,22
59, -26399,73, -24404,17, -11955,25, -23322,73, -10620,59, -3977,92, -21835,49, -20472,41, 0,00, 0,00, 0,00
60, -26405,23, -24412,55, -11956,93, -23325,14, -10623,05, -3976,20, -21840,47, -20484,12, 0,00, 0,00, 0,00
61, -26404,70, -24417,04, -11933,89, -23325,81, -10621,19, -3974,77, -21835,55, -20487,45, 0,00, 0,00, 0,00
62, -26398,55, -24408,93, -11932,28, -23323,31, -10618,73, -3984,00, -21838,21, -20492,99, 0,00, 0,00, 0,00
63, -26397,07, -24406,47, -11948,50, -23319,87, -10616,83, -3995,73, -21840,49, -20480,54, 0,00, 0,00, 0,00
64, -26395,40, -24403,12, -11958,67, -23318,14, -10619,69, -3977,02, -21848,40, -20457,84, 0,00, 0,00, 0,00
65, -26392,94, -24411,10, -11953,80, -23321,25, -10625,39, -3965,07, -21875,38, -20461,17, 0,00, 0,00, 0,00
66, -26393,81, -24410,92, -11935,16, -23323,02, -10625,21, -3965,96, -21854,22, -20482,82, 0,00, 0,00, 0,00
67, -26393,70, -24399,48, -11934,13, -23323,31, -10625,17, -3976,91, -21832,65, -20504,91, 0,00, 0,00, 0,00
68, -26392,40, -24390,36, -11957,71, -23320,27, -10627,96, -3996,96, -21841,77, -20530,50, -0,09, 0,98, 0,22
69, -26382,95, -24392,17, -11974,75, -23310,72, -10625,97, -3993,38, -21872,90, -20530,03, 0,00, 0,00, 0,00
70, -26391,08, -24408,57, -11941,35, -23312,56, -10620,74, -3957,40, -21874,58, -20493,89, 0,00, 0,00, 0,00
71, -26395,78, -24409,49, -11905,70, -23311,48, -10610,19, -3941,37, -21813,89, -20458,57, 0,00, 0,00, 0,00
72, -26396,40, -24414,61, -11911,62, -23314,01, -10615,71, -3956,68, -21817,89, -20455,80, 0,00, 0,00, 0,00
73, -26394,46, -24416,91, -11926,38, -23314,34, -10618,80, -3965,53, -21830,90, -20472,43, 0,00, 0,00, 0,00
74, -26394,15, -24412,71, -11944,50, -23314,81, -10622,02, -3959,61, -21845,50, -20473,30, 0,00, 0,00, 0,00
75, -26393,97, -24405,91, -11937,04, -23312,20, -10621,50, -3952,93, -21852,52, -20463,16, 0,00, 0,00, 0,00
76, -26392,29, -24407,68, -11916,70, -23312,51, -10618,73, -3956,68, -21834,95, -20465,17, 0,00, 0,00, 0,00
77, -26394,46, -24415,88, -11917,88, -23313,74, -10622,04, -3969,92, -21834,81, -20476,63, 0,00, 0,00, 0,00
78, -26390,97, -24410,72, -11942,47, -23311,95, -10620,99, -3989,09, -21828,94, -20481,37, -0,09, 0,98, 0,22
