%OpenBCI Raw EEG Data
%
%Sample Rate = 250.0 Hz
%First Column = SampleIndex
%Other Columns = EEG data in microvolts followed by Accel Data (in G) interleaved with Aux Data
0, -20790,94, -15437,34, -10254,00, -16012,63, -13736,24, 10765,56, -14913,24, -14570,92, -0,17, 0,96, 0,23
1, -20795,53, -15445,73, -10188,64, -16017,68, -13736,91, 10877,45, -14917,15, -14562,65, 0,00, 0,00, 0,00
2, -20791,97, -15448,32, -10281,56, -16022,89, -13750,46, 10822,78, -14932,98, -14569,58, 0,00, 0,00, 0,00
3, -20785,36, -15440,61, -10393,83, -16015,63, -13750,05, 10705,35, -14928,93, -14577,36, 0,00, 0,00, 0,00
4, -20790,97, -15438,77, -10342,35, -16008,74, -13737,25, 10722,15, -14906,18, -14559,30, 0,00, 0,00, 0,00
5, -20803,62, -15447,31, -10196,46, -16014,71, -13729,42, 10880,09, -14891,83, -14539,23, 0,00, 0,00, 0,00
6, -20806,66, -15453,19, -10136,65, -16025,87, -13737,69, 11001,19, -14901,28, -14542,40, -0,13, 0,96, 0,18
7, -20800,46, -15454,15, -10228,45, -16025,89, -13746,14, 10951,15, -14918,65, -14556,82, 0,00, 0,00, 0,00
8, -20795,75, -15451,69, -10324,14, -16022,87, -13746,23, 10863,62, -14923,77, -14562,99, 0,00, 0,00, 0,00
9, -20798,72, -15449,10, -10304,29, -16021,55, -13740,15, 10851,53, -14921,31, -14561,92, 0,00, 0,00, 0,00
10, -20805,96, -15450,73, -10190,38, -16023,12, -13727,46, 10966,75, -14911,94, -14548,73, 0,00, 0,00, 0,00
11, -20813,07, -15460,95, -10151,18, -16034,65, -13730,63, 11057,43, -14921,82, -14551,05, 0,00, 0,00, 0,00
12, -20812,13, -15466,20, -10269,08, -16043,99, -13748,71, 10970,77, -14951,28, -14575,24, 0,00, 0,00, 0,00
13, -20807,46, -15461,57, -10385,78, -16043,01, -13752,78, 10846,29, -14957,21, -14591,04, 0,00, 0,00, 0,00
14, -20809,92, -15457,66, -10362,36, -16039,30, -13739,82, 10826,29, -14923,61, -14585,50, 0,00, 0,00, 0,00
15, -20814,77, -15458,73, -10252,90, -16038,40, -13728,37, 10928,97, -14896,03, -14562,65, 0,00, 0,00, 0,00
16, -20811,06, -15457,30, -10217,67, -16042,07, -13729,42, 11001,82, -14893,79, -14563,52, -0,12, 0,96, 0,17
17, -20809,56, -15458,85, -10300,40, -16051,61, -13743,01, 10950,79, -14912,79, -14579,64, 0,00, 0,00, 0,00
18, -20809,07, -15457,06, -10395,26, -16054,52, -13754,55, 10869,14, -14933,40, -14592,16, 0,00, 0,00, 0,00
19, -20815,66, -15457,68, -10357,78, -16055,08, -13752,94, 10892,74, -14924,62, -14595,67, 0,00, 0,00, 0,00
20, -20820,00, -15456,52, -10230,77, -16054,30, -13744,83, 11036,71, -14903,00, -14578,12, 0,00, 0,00, 0,00
21, -20821,39, -15459,90, -10176,68, -16059,35, -13750,55, 11156,31, -14904,25, -14567,59, 0,00, 0,00, 0,00
22, -20818,12, -15459,81, -10267,43, -16065,23, -13765,19, 11121,20, -14926,52, -14574,39, 0,00, 0,00, 0,00
23, -20819,58, -15460,43, -10374,00, -16066,90, -13775,74, 11038,72, -14948,60, -14581,70, 0,00, 0,00, 0,00
24, -20818,32, -15453,93, -10392,69, -16058,70, -13776,14, 10995,47, -14983,87, -14591,98, 0,00, 0,00, 0,00
25, -20823,15, -15452,36, -10269,53, -16053,89, -13759,62, 11126,65, -14967,11, -14579,28, 0,00, 0,00, 0,00
26, -20826,88, -15458,15, -10213,79, -16060,38, -13756,47, 11244,51, -14920,37, -14580,94, -0,10, 0,95, 0,16
27, -20818,79, -15454,46, -10311,17, -16061,56, -13765,95, 11202,58, -14914,22, -14590,08, 0,00, 0,00, 0,00
28, -20808,56, -15445,30, -10446,67, -16054,56, -13772,50, 11079,67, -14935,68, -14604,88, 0,00, 0,00, 0,00
29, -20811,08, -15444,92, -10444,86, -16042,34, -13761,14, 11045,18, -14933,07, -14590,39, 0,00, 0,00, 0,00
30, -20818,84, -15448,81, -10343,56, -16041,85, -13755,78, 11135,53, -14936,78, -14581,74, 0,00, 0,00, 0,00
31, -20821,57, -15454,11, -10302,46, -16046,23, -13756,92, 11203,59, -14942,95, -14590,70, 0,00, 0,00, 0,00
32, -20823,26, -15462,09, -10397,11, -16055,84, -13767,09, 11133,83, -14950,34, -14611,92, 0,00, 0,00, 0,00
33, -20811,71, -15453,30, -10535,96, -16046,76, -13768,50, 10972,34, -14947,82, -14613,26, 0,00, 0,00, 0,00
34, -20808,13, -15444,27, -10534,76, -16035,79, -13755,51, 10896,72, -14932,78, -14602,71, 0,00, 0,00, 0,00
35, -20815,08, -15447,33, -10403,62, -16034,51, -13736,78, 10990,29, -14899,47, -14561,78, 0,00, 0,00, 0,00
36, -20816,56, -15451,89, -10341,91, -16040,80, -13737,09, 11071,56, -14895,63, -14550,29, -0,09, 0,97, 0,16
37, -20815,42, -15455,60, -10425,43, -16048,91, -13750,19, 11005,64, -14918,02, -14573,65, 0,00, 0,00, 0,00
38, -20811,66, -15451,89, -10531,23, -16048,10, -13755,58, 10886,04, -14920,48, -14586,28, 0,00, 0,00, 0,00
39, -20816,51, -15450,51, -10507,38, -16047,32, -13752,85, 10865,50, -14918,22, -14576,24, 0,00, 0,00, 0,00
40, -20814,46, -15444,94, -10406,88, -16044,24, -13745,58, 10955,46, -14913,58, -14563,82, 0,00, 0,00, 0,00
41, -20818,06, -15448,79, -10350,85, -16051,39, -13749,54, 11046,50, -14912,79, -14566,07, 0,00, 0,00, 0,00
42, -20811,57, -15451,27, -10439,92, -16054,70, -13764,63, 10992,81, -14936,73, -14591,69, 0,00, 0,00, 0,00
43, -20800,82, -15443,80, -10561,20, -16049,16, -13777,75, 10859,91, -14964,34, -14622,35, 0,00, 0,00, 0,00
44, -20799,95, -15439,29, -10526,53, -16041,89, -13771,89, 10847,55, -14958,66, -14612,25, 0,00, 0,00, 0,00
45, -20801,00, -15438,62, -10383,68, -16035,70, -13760,34, 10985,08, -14937,56, -14596,78, 0,00, 0,00, 0,00
46, -20795,41, -15437,95, -10325,03, -16031,03, -13763,06, 11088,97, -14934,05, -14591,35, -0,09, 0,98, 0,16
47, -20787,84, -15437,25, -10412,09, -16032,06, -13777,23, 11032,62, -14956,51, -14612,03, 0,00, 0,00, 0,00
48, -20779,19, -15429,72, -10522,04, -16025,64, -13784,79, 10917,60, -14984,07, -14631,03, 0,00, 0,00, 0,00
49, -20770,22, -15414,30, -10503,80, -16010,87, -13765,83, 10876,60, -14948,49, -14613,21, 0,00, 0,00, 0,00
50, -20777,64, -15416,04, -10370,96, -16013,21, -13754,64, 10984,59, -14918,56, -14595,02, 0,00, 0,00, 0,00
51, -20781,89, -15421,32, -10292,02, -16013,97, -13752,98, 11097,84, -14911,09, -14573,72, 0,00, 0,00, 0,00
52, -20779,39, -15426,23, -10361,75, -16016,03, -13759,78, 11054,97, -14923,75, -14584,71, 0,00, 0,00, 0,00
53, -20774,20, -15424,31, -10471,08, -16008,23, -13758,59, 10933,04, -14927,68, -14590,59, 0,00, 0,00, 0,00
54, -20782,52, -15426,46, -10436,72, -16005,73, -13746,93, 10915,14, -14917,15, -14579,95, 0,00, 0,00, 0,00
55, -20791,95, -15431,55, -10308,20, -16007,00, -13736,26, 11035,32, -14910,25, -14562,70, 0,00, 0,00, 0,00
56, -20794,92, -15435,42, -10240,76, -16012,25, -13732,11, 11147,62, -14908,55, -14551,90, -0,08, 0,97, 0,16
57, -20796,00, -15441,19, -10310,17, -16025,44, -13746,25, 11129,13, -14923,79, -14568,84, 0,00, 0,00, 0,00
58, -20792,55, -15439,22, -10427,09, -16029,44, -13755,91, 11027,95, -14938,09, -14591,84, 0,00, 0,00, 0,00
59, -20793,02, -15433,41, -10415,78, -16021,33, -13744,33, 11007,76, -14931,46, -14586,12, 0,00, 0,00, 0,00
60, -20800,62, -15435,13, -10287,32, -16019,88, -13730,72, 11144,62, -14916,32, -14562,32, 0,00, 0,00, 0,00
61, -20806,50, -15439,69, -10218,97, -16027,85, -13729,04, 11279,99, -14895,29, -14564,31, 0,00, 0,00, 0,00
62, -20807,26, -15443,13, -10303,24, -16033,40, -13744,11, 11253,01, -14911,23, -14587,64, 0,00, 0,00, 0,00
63, -20804,51, -15439,42, -10403,82, -16032,17, -13750,12, 11178,46, -14923,28, -14592,07, 0,00, 0,00, 0,00
64, -20809,94, -15434,86, -10392,82, -16033,89, -13753,30, 11171,31, -14941,13, -14596,78, 0,00, 0,00, 0,00
65, -20818,21, -15435,04, -10266,67, -16037,76, -13748,83, 11313,98, -14929,40, -14582,79, 0,00, 0,00, 0,00
66, -20824,99, -15438,89, -10208,24, -16049,31, -13759,17, 11443,53, -14935,41, -14590,64, -0,10, 0,98, 0,15
67, -20823,02, -15437,97, -10296,24, -16053,33, -13777,10, 11419,01, -14964,96, -14613,30, 0,00, 0,00, 0,00
68, -20819,26, -15433,68, -10407,71, -16051,70, -13786,38, 11326,92, -14974,68, -14632,10, 0,00, 0,00, 0,00
69, -20816,20, -15425,47, -10374,83, -16038,94, -13771,02, 11335,53, -14935,17, -14606,06, 0,00, 0,00, 0,00
70, -20811,40, -15419,95, -10254,56, -16023,63, -13751,08, 11449,93, -14892,21, -14562,65, 0,00, 0,00, 0,00
71, -20809,05, -15423,46, -10196,53, -16023,34, -13753,61, 11540,70, -14899,09, -14546,27, 0,00, 0,00, 0,00
72, -20808,58, -15431,26, -10268,77, -16032,75, -13772,76, 11502,68, -14933,96, -14568,40, 0,00, 0,00, 0,00
73, -20800,06, -15425,63, -10380,98, -16029,46, -13782,02, 11387,99, -14962,62, -14586,03, 0,00, 0,00, 0,00
74, -20795,21, -15414,19, -10370,52, -16017,08, -13773,79, 11351,91, -14971,58, -14577,45, 0,00, 0,00, 0,00
75, -20800,35, -15413,85, -10247,87, -16013,75, -13753,97, 11462,85, -14936,87, -14562,18, 0,00, 0,00, 0,00
76, -20801,40, -15418,43, -10173,24, -16016,92, -13742,34, 11573,26, -14893,10, -14556,30, -0,13, 1,00, 0,15
77, -20795,59, -15420,40, -10245,12, -16016,59, -13746,10, 11532,54, -14897,35, -14571,39, 0,00, 0,00, 0,00
78, -20786,72, -15413,96, -10345,10, -16006,78, -13743,80, 11431,60, -14911,83, -14570,12, 0,00, 0,00, 0,00
79, -20786,36, -15411,13, -10330,57, -16003,13, -13736,40, 11410,72, -14913,66, -14562,16, 0,00, 0,00, 0,00
80, -20789,13, -15410,45, -10210,81, -15997,88, -13719,84, 11523,53, -14895,74, -14545,80, 0,00, 0,00, 0,00
81, -20793,51, -15416,94, -10135,15, -15999,91, -13714,78, 11650,22, -14889,52, -14536,03, 0,00, 0,00, 0,00
82, -20790,83, -15421,52, -10202,97, -16002,11, -13721,60, 11635,02, -14901,66, -14545,35, 0,00, 0,00, 0,00
83, -20790,23, -15423,89, -10309,21, -16002,11, -13726,85, 11550,22, -14915,52, -14557,80, 0,00, 0,00, 0,00
84, -20791,19, -15421,03, -10296,64, -16001,19, -13719,75, 11543,87, -14913,84, -14556,15, 0,00, 0,00, 0,00
85, -20797,40, -15423,02, -10183,25, -16002,89, -13710,20, 11664,32, -14901,75, -14549,15, -0,13, 0,99, 0,17
86, -20807,48, -15434,59, -10126,17, -16017,01, -13714,90, 11775,68, -14921,53, -14547,41, 0,00, 0,00, 0,00
87, -20806,50, -15437,46, -10198,07, -16029,37, -13725,98, 11762,54, -14952,40, -14558,07, 0,00, 0,00, 0,00
88, -20806,61, -15438,30, -10306,77, -16037,35, -13735,66, 11680,10, -14943,97, -14582,48, 0,00, 0,00, 0,00
89, -20802,48, -15428,25, -10281,82, -16028,37, -13724,31, 11688,20, -14909,48, -14570,59, 0,00, 0,00, 0,00
90, -20808,36, -15429,61, -10163,07, -16026,00, -13710,98, 11816,20, -14874,35, -14548,77, 0,00, 0,00, 0,00
91, -20816,27, -15441,34, -10102,81, -16035,21, -13719,10, 11928,59, -14881,99, -14547,34, 0,00, 0,00, 0,00
92, -20815,96, -15448,16, -10178,85, -16043,95, -13742,43, 11899,51, -14926,65, -14564,26, 0,00, 0,00, 0,00
93, -20811,06, -15444,90, -10300,00, -16045,00, -13759,80, 11781,18, -14956,04, -14588,92, 0,00, 0,00, 0,00
94, -20808,09, -15436,09, -10307,53, -16036,24, -13756,96, 11722,24, -14954,14, -14590,19, 0,00, 0,00, 0,00
95, -20816,98, -15437,17, -10196,24, -16036,01, -13748,11, 11807,71, -14947,15, -14575,48, -0,13, 0,97, 0,18
96, -20818,26, -15438,59, -10127,73, -16035,72, -13740,67, 11897,12, -14916,93, -14556,60, 0,00, 0,00, 0,00
97, -20814,10, -15441,12, -10211,10, -16039,05, -13752,67, 11835,25, -14925,44, -14561,63, 0,00, 0,00, 0,00
98, -20807,57, -15438,84, -10344,45, -16037,09, -13761,34, 11682,70, -14947,97, -14574,81, 0,00, 0,00, 0,00
99, -20809,61, -15437,46, -10343,05, -16033,15, -13753,21, 11618,75, -14942,45, -14572,93, 0,00, 0,00, 0,00
100, -20818,12, -15444,47, -10226,73, -16034,22, -13744,60, 11706,52, -14932,40, -14562,36, 0,00, 0,00, 0,00
101, -20816,27, -15448,36, -10183,88, -16036,12, -13745,34, 11764,62, -14943,46, -14555,25, 0,00, 0,00, 0,00
102, -20817,10, -15456,43, -10283,25, -16046,90, -13759,60, 11674,49, -14972,09, -14581,58, 0,00, 0,00, 0,00
103, -20809,36, -15450,98, -10412,07, -16042,32, -13767,18, 11514,23, -15006,87, -14604,03, 0,00, 0,00, 0,00
104, -20804,91, -15440,79, -10398,92, -16027,76, -13746,41, 11455,67, -14982,75, -14575,15, 0,00, 0,00, 0,00
105, -20812,31, -15442,75, -10271,77, -16024,05, -13723,88, 11551,58, -14918,83, -14537,82, -0,13, 0,97, 0,18
106, -20814,68, -15447,67, -10210,57, -16029,46, -13722,88, 11633,32, -14900,03, -14540,90, 0,00, 0,00, 0,00
107, -20809,85, -15450,46, -10295,08, -16030,60, -13730,23, 11562,49, -14920,01, -14556,13, 0,00, 0,00, 0,00
108, -20808,38, -15452,86, -10407,96, -16030,83, -13737,29, 11430,99, -14930,32, -14570,45, 0,00, 0,00, 0,00
109, -20808,11, -15450,96, -10399,93, -16025,44, -13725,83, 11382,87, -14895,63, -14567,01, 0,00, 0,00, 0,00
110, -20810,61, -15450,84, -10285,18, -16024,97, -13715,50, 11471,05, -14883,22, -14553,11, 0,00, 0,00, 0,00
111, -20808,71, -15451,96, -10232,65, -16031,65, -13723,32, 11542,62, -14906,29, -14562,81, 0,00, 0,00, 0,00
112, -20807,91, -15455,31, -10319,96, -16040,13, -13738,41, 11471,12, -14938,81, -14584,76, 0,00, 0,00, 0,00
113, -20801,11, -15448,61, -10430,89, -16031,50, -13740,04, 11343,76, -14946,14, -14582,14, 0,00, 0,00, 0,00
114, -20801,72, -15444,34, -10424,85, -16024,37, -13736,02, 11288,50, -14933,36, -14576,31, 0,00, 0,00, 0,00
115, -20811,69, -15451,54, -10307,04, -16027,36, -13732,51, 11378,69, -14915,56, -14571,91, -0,11, 0,96, 0,18
116, -20811,48, -15455,16, -10239,69, -16028,93, -13735,68, 11473,60, -14913,96, -14572,98, 0,00, 0,00, 0,00
117, -20805,47, -15457,37, -10327,49, -16030,02, -13750,61, 11407,01, -14934,29, -14573,52, 0,00, 0,00, 0,00
118, -20797,40, -15451,87, -10441,75, -16026,45, -13756,02, 11280,52, -14932,51, -14576,00, 0,00, 0,00, 0,00
119, -20795,79, -15446,31, -10413,68, -16019,07, -13745,65, 11256,63, -14921,96, -14567,66, 0,00, 0,00, 0,00
120, -20800,33, -15447,63, -10298,45, -16017,91, -13743,77, 11350,95, -14937,60, -14564,71, 0,00, 0,00, 0,00
121, -20799,39, -15450,33, -10243,11, -16017,26, -13742,90, 11426,95, -14939,46, -14565,60, 0,00, 0,00, 0,00
122, -20796,20, -15454,49, -10310,43, -16021,57, -13753,39, 11380,86, -14937,20, -14583,10, 0,00, 0,00, 0,00
123, -20783,50, -15443,60, -10435,34, -16016,08, -13759,91, 11236,94, -14951,22, -14599,98, 0,00, 0,00, 0,00
124, -20784,60, -15437,54, -10429,52, -16010,02, -13751,15, 11176,43, -14939,28, -14583,89, 0,00, 0,00, 0,00
125, -20789,13, -15438,17, -10303,46, -16006,17, -13735,46, 11265,12, -14922,20, -14560,35, -0,10, 0,98, 0,19
126, -20790,07, -15440,50, -10236,34, -16006,98, -13732,93, 11349,63, -14923,90, -14557,60, 0,00, 0,00, 0,00
127, -20787,03, -15445,48, -10321,39, -16011,94, -13751,78, 11281,10, -14971,11, -14582,28, 0,00, 0,00, 0,00
128, -20778,29, -15440,09, -10427,02, -16006,82, -13750,10, 11155,15, -14971,49, -14588,02, 0,00, 0,00, 0,00
129, -20776,84, -15437,37, -10418,89, -16000,52, -13732,15, 11101,46, -14920,95, -14568,44, 0,00, 0,00, 0,00
130, -20776,95, -15435,62, -10301,78, -15999,36, -13717,51, 11189,31, -14889,19, -14554,70, 0,00, 0,00, 0,00
131, -20778,05, -15439,00, -10243,71, -16007,02, -13721,53, 11269,03, -14893,24, -14564,73, 0,00, 0,00, 0,00
132, -20778,45, -15446,08, -10330,71, -16014,44, -13739,39, 11200,91, -14916,84, -14580,62, 0,00, 0,00, 0,00
133, -20775,28, -15444,97, -10425,28, -16009,53, -13742,46, 11097,31, -14925,98, -14576,40, 0,00, 0,00, 0,00
134, -20771,32, -15437,21, -10430,89, -16002,33, -13742,12, 11036,06, -14941,78, -14582,99, 0,00, 0,00, 0,00
135, -20779,03, -15439,56, -10314,68, -16003,22, -13735,91, 11132,04, -14929,96, -14566,85, -0,09, 0,99, 0,19
136, -20780,66, -15443,38, -10256,21, -16007,22, -13737,54, 11224,42, -14920,33, -14567,75, 0,00, 0,00, 0,00
137, -20778,72, -15446,42, -10335,78, -16012,28, -13752,83, 11176,63, -14933,36, -14591,89, 0,00, 0,00, 0,00
138, -20775,19, -15444,09, -10430,53, -16010,75, -13759,71, 11083,63, -14934,23, -14588,80, 0,00, 0,00, 0,00
139, -20770,27, -15433,30, -10425,19, -16003,65, -13755,26, 11036,93, -14934,21, -14586,46, 0,00, 0,00, 0,00
140, -20774,25, -15432,02, -10322,71, -15999,98, -13746,12, 11111,23, -14930,63, -14579,86, 0,00, 0,00, 0,00
141, -20774,20, -15432,74, -10266,65, -15999,27, -13743,57, 11192,10, -14929,04, -14573,83, 0,00, 0,00, 0,00
142, -20772,46, -15435,56, -10337,21, -16002,26, -13753,18, 11147,66, -14944,98, -14593,21, 0,00, 0,00, 0,00
143, -20768,97, -15434,24, -10435,29, -16000,03, -13757,48, 11045,25, -14953,34, -14611,92, 0,00, 0,00, 0,00
144, -20763,96, -15423,51, -10426,35, -15985,36, -13740,62, 11005,53, -14924,04, -14583,71, 0,00, 0,00, 0,00
145, -20774,47, -15426,61, -10303,55, -15985,34, -13728,87, 11112,91, -14902,42, -14552,62, -0,10, 0,98, 0,19
146, -20777,94, -15430,57, -10234,08, -15992,23, -13729,67, 11219,88, -14905,64, -14555,05, 0,00, 0,00, 0,00
147, -20771,63, -15429,88, -10308,45, -15996,92, -13743,82, 11179,87, -14933,11, -14573,69, 0,00, 0,00, 0,00
148, -20761,02, -15420,65, -10416,07, -15991,64, -13748,24, 11066,48, -14959,44, -14589,47, 0,00, 0,00, 0,00
149, -20760,93, -15415,39, -10401,63, -15985,05, -13732,78, 11031,28, -14928,37, -14579,95, 0,00, 0,00, 0,00
150, -20764,75, -15413,11, -10305,54, -15979,46, -13714,56, 11098,67, -14891,80, -14558,63, 0,00, 0,00, 0,00
151, -20771,79, -15420,96, -10241,43, -15989,07, -13715,39, 11187,45, -14902,78, -14552,59, 0,00, 0,00, 0,00
152, -20771,74, -15423,87, -10316,51, -15997,19, -13729,33, 11141,45, -14928,66, -14571,39, 0,00, 0,00, 0,00
153, -20767,74, -15421,72, -10419,65, -15993,32, -13731,12, 11034,59, -14921,78, -14588,85, 0,00, 0,00, 0,00
154, -20768,90, -15420,78, -10414,17, -15989,77, -13724,31, 10984,34, -14912,90, -14581,81, 0,00, 0,00, 0,00
155, -20776,82, -15424,49, -10288,87, -15992,52, -13713,78, 11088,59, -14893,91, -14555,39, -0,10, 0,98, 0,20
156, -20781,00, -15430,59, -10225,32, -16000,32, -13719,46, 11185,06, -14900,92, -14549,78, 0,00, 0,00, 0,00
157, -20782,25, -15437,57, -10294,16, -16009,24, -13733,31, 11152,36, -14918,16, -14564,55, 0,00, 0,00, 0,00
158, -20771,27, -15429,34, -10407,17, -16003,36, -13740,26, 11039,44, -14935,14, -14578,61, 0,00, 0,00, 0,00
159, -20778,31, -15430,84, -10418,86, -16009,26, -13744,00, 10982,42, -14933,78, -14588,36, 0,00, 0,00, 0,00
160, -20789,22, -15437,19, -10320,49, -16011,51, -13741,05, 11069,05, -14928,55, -14576,04, 0,00, 0,00, 0,00
161, -20788,73, -15437,32, -10263,61, -16012,95, -13739,42, 11156,72, -14919,88, -14573,20, 0,00, 0,00, 0,00
162, -20783,12, -15437,43, -10334,49, -16011,38, -13747,80, 11119,10, -14920,91, -14579,28, 0,00, 0,00, 0,00
163, -20781,53, -15435,31, -10430,75, -16009,17, -13754,95, 11027,79, -14933,16, -14586,05, 0,00, 0,00, 0,00
164, -20790,52, -15440,32, -10431,76, -16010,96, -13755,04, 10992,57, -14943,66, -14585,90, -0,10, 0,97, 0,20
165, -20796,04, -15441,84, -10338,51, -16010,80, -13748,38, 11069,59, -14938,21, -14577,90, 0,00, 0,00, 0,00
166, -20795,86, -15441,75, -10278,74, -16013,75, -13746,34, 11160,25, -14927,19, -14574,77, 0,00, 0,00, 0,00
167, -20790,23, -15439,80, -10353,48, -16015,45, -13758,93, 11117,82, -14955,62, -14601,28, 0,00, 0,00, 0,00
168, -20789,74, -15438,26, -10458,72, -16013,21, -13764,96, 11010,51, -14986,04, -14628,21, 0,00, 0,00, 0,00
169, -20793,07, -15434,26, -10461,93, -16004,50, -13752,89, 10957,90, -14970,39, -14623,18, 0,00, 0,00, 0,00
170, -20794,27, -15430,75, -10350,44, -15996,05, -13729,02, 11048,44, -14922,90, -14570,32, 0,00, 0,00, 0,00
171, -20795,97, -15433,25, -10279,28, -15995,35, -13716,84, 11146,79, -14888,41, -14536,50, 0,00, 0,00, 0,00
172, -20797,67, -15436,07, -10348,57, -15997,77, -13723,48, 11105,15, -14901,08, -14544,93, 0,00, 0,00, 0,00
173, -20790,88, -15429,79, -10438,73, -15991,24, -13723,84, 11007,61, -14916,91, -14554,61, 0,00, 0,00, 0,00
174, -20791,01, -15426,26, -10436,34, -15987,49, -13722,23, 10952,15, -14934,59, -14561,09, -0,11, 0,97, 0,20
175, -20795,35, -15425,05, -10341,50, -15985,12, -13709,04, 11011,79, -14915,05, -14555,95, 0,00, 0,00, 0,00
176, -20801,58, -15431,69, -10277,06, -15990,68, -13705,96, 11091,05, -14908,75, -14551,14, 0,00, 0,00, 0,00
177, -20795,26, -15430,50, -10329,54, -15991,89, -13708,70, 11059,42, -14886,42, -14552,59, 0,00, 0,00, 0,00
178, -20787,84, -15423,96, -10434,91, -15989,14, -13718,47, 10944,06, -14891,33, -14563,10, 0,00, 0,00, 0,00
179, -20789,07, -15421,29, -10440,05, -15989,05, -13723,70, 10884,83, -14900,23, -14565,33, 0,00, 0,00, 0,00
180, -20789,16, -15419,57, -10343,65, -15991,35, -13725,69, 10952,38, -14892,86, -14562,27, 0,00, 0,00, 0,00
181, -20788,17, -15421,97, -10288,49, -15993,03, -13733,60, 11023,21, -14900,66, -14560,33, 0,00, 0,00, 0,00
182, -20786,32, -15425,52, -10353,22, -15994,39, -13745,70, 10980,83, -14922,34, -14572,02, 0,00, 0,00, 0,00
183, -20785,76, -15426,68, -10440,37, -15993,72, -13749,67, 10893,52, -14928,60, -14584,83, 0,00, 0,00, 0,00
184, -20779,14, -15415,57, -10435,13, -15983,78, -13743,26, 10851,44, -14930,27, -14589,74, -0,11, 0,98, 0,20
185, -20782,12, -15412,33, -10337,73, -15981,16, -13735,84, 10919,30, -14923,61, -14581,03, 0,00, 0,00, 0,00
186, -20783,46, -15415,86, -10279,32, -15982,97, -13732,06, 11000,95, -14912,19, -14573,36, 0,00, 0,00, 0,00
187, -20784,69, -15422,86, -10354,94, -15990,93, -13747,04, 10959,22, -14932,33, -14583,10, 0,00, 0,00, 0,00
188, -20781,04, -15422,12, -10444,77, -15991,58, -13753,72, 10890,42, -14948,26, -14587,93, 0,00, 0,00, 0,00
189, -20774,07, -15409,47, -10448,55, -15980,40, -13742,84, 10842,79, -14933,85, -14591,80, 0,00, 0,00, 0,00
190, -20780,39, -15409,16, -10360,23, -15977,18, -13730,70, 10898,00, -14917,62, -14587,44, 0,00, 0,00, 0,00
191, -20781,44, -15410,19, -10289,71, -15977,88, -13722,90, 10994,02, -14911,09, -14572,13, 0,00, 0,00, 0,00
192, -20778,76, -15412,60, -10343,52, -15979,64, -13723,90, 10981,41, -14912,97, -14560,80, 0,00, 0,00, 0,00
193, -20783,84, -15418,77, -10440,63, -15985,54, -13732,58, 10908,32, -14928,71, -14564,51, 0,00, 0,00, 0,00
194, -20783,84, -15415,62, -10440,16, -15985,16, -13731,95, 10863,51, -14948,33, -14572,93, -0,11, 0,98, 0,20
195, -20786,94, -15414,01, -10344,81, -15983,04, -13721,22, 10924,04, -14934,00, -14562,92, 0,00, 0,00, 0,00
196, -20786,43, -15416,58, -10275,21, -15982,44, -13702,65, 11018,38, -14881,84, -14549,13, 0,00, 0,00, 0,00
197, -20784,17, -15421,27, -10328,99, -15986,21, -13702,89, 10998,49, -14868,87, -14563,55, 0,00, 0,00, 0,00
198, -20788,28, -15427,93, -10413,66, -15992,20, -13711,10, 10937,16, -14884,47, -14563,93, 0,00, 0,00, 0,00
199, -20788,75, -15424,07, -10417,39, -15989,05, -13707,74, 10886,42, -14891,63, -14555,83, 0,00, 0,00, 0,00
200, -20791,95, -15423,55, -10313,56, -15988,60, -13695,18, 10957,85, -14866,12, -14545,67, 0,00, 0,00, 0,00
201, -20796,69, -15431,84, -10250,89, -16001,30, -13704,70, 11051,28, -14881,10, -14549,22, 0,00, 0,00, 0,00
202, -20788,17, -15431,24, -10324,14, -16001,64, -13715,75, 11016,08, -14893,50, -14563,48, 0,00, 0,00, 0,00
203, -20781,31, -15427,42, -10424,70, -16000,03, -13723,79, 10929,04, -14904,95, -14577,34, 0,00, 0,00, 0,00
204, -20784,35, -15427,75, -10439,07, -16004,47, -13733,38, 10855,37, -14925,62, -14594,15, -0,12, 0,97, 0,20
205, -20780,44, -15419,51, -10345,55, -15995,13, -13724,57, 10906,35, -14920,73, -14582,48, 0,00, 0,00, 0,00
206, -20782,54, -15424,31, -10268,39, -15999,45, -13726,47, 11013,17, -14911,16, -14579,48, 0,00, 0,00, 0,00
207, -20779,25, -15426,68, -10326,19, -16001,41, -13736,33, 10997,44, -14930,32, -14595,64, 0,00, 0,00, 0,00
208, -20772,59, -15421,74, -10418,89, -15997,08, -13739,10, 10929,13, -14937,04, -14598,04, 0,00, 0,00, 0,00
209, -20771,68, -15417,32, -10419,42, -15989,63, -13735,46, 10882,80, -14928,33, -14597,77, 0,00, 0,00, 0,00
210, -20772,95, -15414,63, -10323,13, -15986,12, -13728,93, 10950,99, -14923,03, -14590,10, 0,00, 0,00, 0,00
211, -20774,29, -15416,67, -10267,63, -15989,39, -13727,86, 11035,55, -14921,60, -14583,31, 0,00, 0,00, 0,00
212, -20773,26, -15419,51, -10318,39, -15994,86, -13734,41, 11029,31, -14928,26, -14587,60, 0,00, 0,00, 0,00
213, -20770,43, -15415,26, -10416,27, -15994,26, -13740,42, 10954,43, -14936,33, -14595,15, 0,00, 0,00, 0,00
214, -20775,88, -15415,26, -10434,17, -15992,27, -13740,60, 10883,04, -14937,36, -14598,95, -0,11, 0,97, 0,20
215, -20781,36, -15414,19, -10321,03, -15988,29, -13724,84, 10963,17, -14913,17, -14578,46, 0,00, 0,00, 0,00
216, -20786,65, -15419,89, -10260,77, -15991,51, -13723,34, 11049,90, -14907,00, -14574,86, 0,00, 0,00, 0,00
217, -20795,97, -15434,08, -10321,32, -16001,64, -13735,75, 11031,55, -14918,36, -14582,77, 0,00, 0,00, 0,00
218, -20789,74, -15429,79, -10424,50, -16000,09, -13744,18, 10952,13, -14937,58, -14588,27, 0,00, 0,00, 0,00
219, -20783,88, -15419,40, -10433,15, -15990,24, -13735,01, 10890,04, -14934,34, -14586,64, 0,00, 0,00, 0,00
220, -20789,33, -15419,40, -10320,29, -15987,33, -13718,83, 10973,68, -14898,04, -14562,59, 0,00, 0,00, 0,00
221, -20788,60, -15419,26, -10262,80, -15988,29, -13718,14, 11060,72, -14903,61, -14553,62, 0,00, 0,00, 0,00
222, -20785,42, -15421,41, -10331,74, -15990,42, -13722,81, 11024,51, -14908,48, -14562,94, 0,00, 0,00, 0,00
223, -20787,48, -15427,26, -10426,69, -15997,41, -13729,16, 10948,02, -14905,42, -14573,67, 0,00, 0,00, 0,00
224, -20778,49, -15415,42, -10443,45, -15988,02, -13730,92, 10873,30, -14924,84, -14578,92, -0,10, 0,98, 0,20
225, -20782,27, -15412,51, -10356,17, -15986,64, -13727,84, 10909,73, -14924,77, -14582,14, 0,00, 0,00, 0,00
226, -20787,26, -15418,23, -10275,95, -15996,07, -13731,50, 11015,90, -14908,32, -14581,29, 0,00, 0,00, 0,00
227, -20779,43, -15417,47, -10340,34, -15997,32, -13744,49, 10992,72, -14918,09, -14595,38, 0,00, 0,00, 0,00
228, -20776,75, -15417,70, -10440,43, -15994,21, -13750,64, 10910,47, -14920,30, -14614,24, 0,00, 0,00, 0,00
229, -20778,34, -15415,55, -10447,34, -15991,60, -13752,87, 10855,04, -14919,79, -14617,71, 0,00, 0,00, 0,00
230, -20782,43, -15416,53, -10346,44, -15989,81, -13745,94, 10929,09, -14923,86, -14593,03, 0,00, 0,00, 0,00
231, -20780,71, -15417,47, -10285,80, -15990,04, -13741,99, 11024,08, -14927,37, -14585,65, 0,00, 0,00, 0,00
232, -20776,42, -15417,32, -10347,16, -15989,48, -13744,58, 11006,22, -14921,35, -14596,27, 0,00, 0,00, 0,00
233, -20769,55, -15412,78, -10451,09, -15986,08, -13750,61, 10925,15, -14927,79, -14612,23, -0,09, 0,98, 0,19
234, -20762,67, -15401,38, -10450,33, -15973,88, -13738,68, 10873,21, -14914,18, -14608,03, 0,00, 0,00, 0,00
235, -20767,25, -15401,18, -10333,01, -15971,82, -13724,73, 10963,84, -14895,43, -14575,28, 0,00, 0,00, 0,00
236, -20772,30, -15408,53, -10259,38, -15978,01, -13726,63, 11079,11, -14895,40, -14553,31, 0,00, 0,00, 0,00
237, -20771,61, -15413,56, -10331,11, -15982,17, -13738,72, 11063,15, -14910,76, -14569,36, 0,00, 0,00, 0,00
238, -20769,64, -15413,14, -10443,99, -15980,98, -13743,91, 10978,71, -14927,19, -14584,09, 0,00, 0,00, 0,00
239, -20767,50, -15406,50, -10460,37, -15972,56, -13736,98, 10912,32, -14932,44, -14587,28, 0,00, 0,00, 0,00
240, -20779,48, -15411,62, -10347,90, -15972,76, -13726,56, 11000,81, -14911,76, -14569,69, 0,00, 0,00, 0,00
241, -20782,88, -15416,91, -10283,01, -15976,78, -13726,14, 11105,11, -14902,98, -14566,45, 0,00, 0,00, 0,00
242, -20779,83, -15418,28, -10351,63, -15981,54, -13737,23, 11083,38, -14921,02, -14582,28, 0,00, 0,00, 0,00
243, -20774,29, -15412,40, -10442,02, -15977,79, -13738,59, 11022,18, -14921,26, -14583,19, -0,10, 0,97, 0,19
244, -20766,78, -15400,51, -10461,22, -15968,17, -13731,17, 10951,15, -14908,46, -14577,83, 0,00, 0,00, 0,00
245, -20773,80, -15401,29, -10363,01, -15970,90, -13721,42, 11014,78, -14887,96, -14568,29, 0,00, 0,00, 0,00
246, -20781,87, -15411,24, -10301,23, -15983,71, -13724,44, 11109,11, -14883,09, -14572,78, 0,00, 0,00, 0,00
247, -20778,94, -15413,58, -10365,55, -15989,28, -13735,30, 11088,28, -14900,97, -14571,59, 0,00, 0,00, 0,00
248, -20772,84, -15410,77, -10470,85, -15987,73, -13745,58, 11003,90, -14925,89, -14579,01, 0,00, 0,00, 0,00
249, -20776,42, -15408,04, -10470,88, -15985,83, -13744,02, 10950,70, -14931,57, -14584,51, 0,00, 0,00, 0,00
250, -20781,96, -15408,44, -10348,12, -15987,96, -13737,47, 11049,88, -14917,44, -14574,23, 0,00, 0,00, 0,00
251, -20781,58, -15410,05, -10290,38, -15992,16, -13741,27, 11144,29, -14910,31, -14571,12, 0,00, 0,00, 0,00
252, -20778,25, -15410,79, -10360,61, -15998,84, -13755,02, 11119,70, -14925,87, -14581,07, 0,00, 0,00, 0,00
253, -20766,49, -15400,04, -10471,03, -15995,24, -13758,59, 11026,65, -14933,80, -14591,24, -0,10, 0,97, 0,19
254, -20764,93, -15393,00, -10473,56, -15989,48, -13752,11, 10972,54, -14927,30, -14593,14, 0,00, 0,00, 0,00
255, -20772,01, -15391,72, -10373,04, -15990,30, -13744,78, 11040,69, -14924,13, -14588,56, 0,00, 0,00, 0,00
0, -20778,99, -15397,38, -10299,84, -16001,12, -13747,55, 11144,45, -14933,63, -14586,28, 0,00, 0,00, 0,00
1, -20779,10, -15401,94, -10362,09, -16010,22, -13759,22, 11126,03, -14954,75, -14593,14, 0,00, 0,00, 0,00
2, -20774,25, -15397,83, -10469,53, -16011,83, -13766,08, 11029,56, -14964,13, -14610,75, 0,00, 0,00, 0,00
3, -20768,05, -15385,40, -10470,63, -16002,15, -13755,38, 10981,46, -14943,95, -14618,13, 0,00, 0,00, 0,00
4, -20773,35, -15385,08, -10357,19, -16000,96, -13738,14, 11080,45, -14914,13, -14589,01, 0,00, 0,00, 0,00
5, -20778,79, -15391,43, -10292,13, -16004,74, -13731,64, 11183,65, -14903,03, -14560,57, 0,00, 0,00, 0,00
6, -20774,98, -15391,46, -10351,92, -16007,60, -13737,76, 11165,34, -14905,80, -14568,02, 0,00, 0,00, 0,00
7, -20775,77, -15394,74, -10454,18, -16010,60, -13748,45, 11071,09, -14925,11, -14580,20, -0,10, 0,97, 0,17
8, -20772,64, -15388,10, -10453,33, -15999,80, -13740,06, 11026,54, -14925,20, -14571,15, 0,00, 0,00, 0,00
9, -20786,54, -15397,74, -10337,14, -16003,71, -13733,13, 11131,19, -14909,91, -14548,71, 0,00, 0,00, 0,00
10, -20788,82, -15404,29, -10277,44, -16008,27, -13731,55, 11223,93, -14896,52, -14536,10, 0,00, 0,00, 0,00
11, -20793,04, -15413,14, -10339,07, -16016,79, -13745,14, 11199,77, -14906,02, -14553,00, 0,00, 0,00, 0,00
12, -20793,51, -15414,70, -10428,23, -16016,39, -13754,19, 11123,64, -14920,68, -14568,78, 0,00, 0,00, 0,00
13, -20791,75, -15409,36, -10438,20, -16011,60, -13755,84, 11069,88, -14920,48, -14573,56, 0,00, 0,00, 0,00
14, -20788,75, -15401,83, -10339,96, -16005,41, -13746,57, 11145,38, -14906,29, -14558,63, 0,00, 0,00, 0,00
15, -20791,75, -15406,14, -10280,48, -16009,68, -13749,83, 11240,38, -14906,98, -14555,70, 0,00, 0,00, 0,00
16, -20793,98, -15414,28, -10345,44, -16014,53, -13765,81, 11212,08, -14925,09, -14570,57, 0,00, 0,00, 0,00
17, -20783,37, -15404,91, -10455,74, -16008,36, -13773,77, 11098,65, -14941,45, -14588,25, -0,09, 0,98, 0,17
18, -20776,66, -15393,91, -10463,32, -15997,59, -13767,78, 11033,56, -14940,49, -14587,78, 0,00, 0,00, 0,00
19, -20780,91, -15392,44, -10361,78, -15990,93, -13757,25, 11103,09, -14927,08, -14575,82, 0,00, 0,00, 0,00
20, -20787,99, -15399,17, -10293,40, -15993,86, -13754,95, 11191,99, -14921,29, -14570,57, 0,00, 0,00, 0,00
21, -20789,74, -15405,81, -10343,65, -16000,99, -13763,13, 11170,42, -14933,80, -14584,11, 0,00, 0,00, 0,00
22, -20792,82, -15411,55, -10444,21, -16009,57, -13778,55, 11076,34, -14959,96, -14602,66, 0,00, 0,00, 0,00
23, -20797,38, -15411,10, -10448,90, -16005,93, -13777,95, 11028,26, -14969,28, -14602,15, 0,00, 0,00, 0,00
24, -20801,25, -15408,49, -10345,93, -15995,94, -13757,03, 11107,27, -14937,71, -14581,88, 0,00, 0,00, 0,00
25, -20804,31, -15410,61, -10285,18, -15993,95, -13748,27, 11193,22, -14906,31, -14559,63, 0,00, 0,00, 0,00
26, -20804,51, -15415,35, -10348,39, -16002,11, -13762,75, 11165,43, -14917,46, -14570,88, 0,00, 0,00, 0,00
27, -20800,67, -15411,91, -10455,72, -15997,25, -13770,31, 11050,17, -14932,66, -14589,12, -0,09, 0,99, 0,17
28, -20800,04, -15407,28, -10461,78, -15987,60, -13762,13, 10987,42, -14936,62, -14593,59, 0,00, 0,00, 0,00
29, -20807,62, -15410,39, -10369,15, -15988,27, -13753,50, 11052,87, -14944,26, -14594,37, 0,00, 0,00, 0,00
30, -20817,12, -15421,94, -10305,00, -15996,85, -13753,30, 11145,38, -14935,17, -14588,92, 0,00, 0,00, 0,00
31, -20819,26, -15428,49, -10368,46, -15995,89, -13755,98, 11113,94, -14917,35, -14564,82, 0,00, 0,00, 0,00
32, -20817,12, -15426,48, -10450,09, -15986,57, -13748,29, 11035,03, -14906,29, -14549,62, 0,00, 0,00, 0,00
33, -20820,58, -15425,63, -10442,06, -15983,82, -13743,06, 11003,74, -14901,57, -14548,24, 0,00, 0,00, 0,00
34, -20826,60, -15426,68, -10348,66, -15983,73, -13737,63, 11082,60, -14893,44, -14545,49, 0,00, 0,00, 0,00
35, -20829,88, -15432,36, -10289,65, -15988,16, -13743,51, 11170,46, -14902,15, -14551,86, 0,00, 0,00, 0,00
36, -20823,87, -15433,68, -10347,18, -15989,23, -13754,53, 11163,04, -14925,47, -14571,03, 0,00, 0,00, 0,00
37, -20821,74, -15433,19, -10450,76, -15991,93, -13766,86, 11104,97, -14950,43, -14596,74, -0,09, 1,00, 0,17
38, -20828,72, -15435,76, -10456,53, -15993,43, -13770,55, 11071,00, -14961,54, -14611,13, 0,00, 0,00, 0,00
39, -20828,63, -15433,10, -10358,29, -15984,04, -13754,75, 11149,05, -14944,24, -14591,51, 0,00, 0,00, 0,00
40, -20833,63, -15438,08, -10286,09, -15984,69, -13748,58, 11253,30, -14919,48, -14570,23, 0,00, 0,00, 0,00
41, -20836,45, -15446,87, -10351,41, -15988,96, -13758,42, 11227,86, -14918,47, -14571,64, 0,00, 0,00, 0,00
42, -20833,88, -15448,30, -10454,89, -15991,91, -13770,64, 11136,38, -14955,86, -14591,87, 0,00, 0,00, 0,00
43, -20829,70, -15442,44, -10459,03, -15986,41, -13764,32, 11090,11, -14950,70, -14590,86, 0,00, 0,00, 0,00
44, -20838,20, -15448,05, -10349,10, -15989,43, -13750,77, 11192,21, -14906,89, -14575,04, 0,00, 0,00, 0,00
45, -20834,44, -15448,16, -10297,81, -15987,82, -13746,97, 11275,81, -14903,38, -14573,02, 0,00, 0,00, 0,00
46, -20835,09, -15455,18, -10365,29, -15995,73, -13757,16, 11247,35, -14920,01, -14582,70, -0,09, 0,97, 0,18
47, -20834,24, -15457,39, -10458,58, -15999,58, -13761,12, 11165,48, -14926,16, -14594,15, 0,00, 0,00, 0,00
48, -20834,66, -15454,60, -10458,96, -15999,69, -13757,14, 11124,66, -14918,13, -14598,08, 0,00, 0,00, 0,00
49, -20840,36, -15458,73, -10364,10, -16004,70, -13752,40, 11208,75, -14907,88, -14584,65, 0,00, 0,00, 0,00
50, -20844,59, -15465,64, -10300,62, -16011,90, -13750,17, 11305,53, -14899,63, -14573,16, 0,00, 0,00, 0,00
51, -20844,14, -15470,36, -10367,54, -16018,35, -13759,64, 11271,25, -14911,21, -14581,36, 0,00, 0,00, 0,00
52, -20842,13, -15469,89, -10460,04, -16021,73, -13766,55, 11176,05, -14923,92, -14593,23, 0,00, 0,00, 0,00
53, -20845,19, -15468,46, -10457,91, -16021,86, -13768,43, 11129,85, -14931,21, -14601,72, 0,00, 0,00, 0,00
54, -20845,44, -15463,36, -10364,37, -16018,42, -13759,98, 11201,89, -14922,27, -14588,74, 0,00, 0,00, 0,00
55, -20849,19, -15465,53, -10315,31, -16025,49, -13761,23, 11272,30, -14907,63, -14574,70, 0,00, 0,00, 0,00
56, -20855,45, -15476,19, -10372,15, -16036,59, -13773,41, 11247,08, -14907,18, -14583,89, -0,09, 0,97, 0,18
57, -20844,99, -15468,21, -10484,22, -16032,55, -13783,25, 11121,78, -14929,87, -14606,10, 0,00, 0,00, 0,00
58, -20840,03, -15458,18, -10476,87, -16022,98, -13776,23, 11063,87, -14927,54, -14605,70, 0,00, 0,00, 0,00
59, -20844,03, -15459,72, -10373,53, -16021,48, -13767,83, 11132,91, -14925,24, -14597,90, 0,00, 0,00, 0,00
60, -20851,58, -15466,87, -10319,17, -16030,02, -13776,45, 11207,68, -14939,46, -14613,50, 0,00, 0,00, 0,00
61, -20843,80, -15463,09, -10376,04, -16027,36, -13782,98, 11175,67, -14943,48, -14607,20, 0,00, 0,00, 0,00
62, -20833,88, -15453,71, -10478,61, -16017,86, -13785,06, 11064,14, -14955,37, -14588,71, 0,00, 0,00, 0,00
63, -20834,31, -15447,16, -10470,03, -16010,49, -13774,84, 11019,90, -14947,30, -14580,29, 0,00, 0,00, 0,00
64, -20838,22, -15444,70, -10361,17, -16009,53, -13758,53, 11112,59, -14904,28, -14567,28, 0,00, 0,00, 0,00
65, -20839,83, -15448,65, -10311,35, -16015,40, -13760,52, 11197,98, -14893,30, -14570,59, 0,00, 0,00, 0,00
66, -20831,40, -15443,62, -10374,00, -16011,69, -13763,31, 11163,94, -14907,14, -14586,57, -0,09, 0,98, 0,17
67, -20827,96, -15437,95, -10472,60, -16005,77, -13767,15, 11071,44, -14923,50, -14603,49, 0,00, 0,00, 0,00
68, -20823,15, -15426,46, -10473,56, -15993,43, -13758,91, 11029,45, -14923,57, -14595,40, 0,00, 0,00, 0,00
69, -20833,10, -15429,61, -10366,02, -15992,61, -13751,15, 11136,35, -14924,24, -14563,97, 0,00, 0,00, 0,00
70, -20839,71, -15437,70, -10324,07, -15997,95, -13753,25, 11224,46, -14930,96, -14561,33, 0,00, 0,00, 0,00
71, -20833,84, -15436,72, -10405,70, -15996,79, -13753,74, 11182,31, -14906,87, -14571,57, 0,00, 0,00, 0,00
72, -20829,03, -15433,12, -10491,17, -15993,61, -13752,29, 11112,48, -14900,66, -14575,82, 0,00, 0,00, 0,00
73, -20834,62, -15436,36, -10503,73, -15993,05, -13753,92, 11066,01, -14901,26, -14577,09, 0,00, 0,00, 0,00
74, -20841,79, -15442,64, -10420,14, -15999,18, -13750,10, 11141,52, -14897,24, -14563,97, 0,00, 0,00, 0,00
75, -20837,55, -15442,17, -10371,37, -16004,21, -13749,94, 11219,88, -14909,78, -14567,41, 0,00, 0,00, 0,00
76, -20840,59, -15449,88, -10424,23, -16008,81, -13750,88, 11196,35, -14914,96, -14573,72, -0,07, 0,99, 0,17
77, -20838,29, -15452,74, -10532,79, -16009,19, -13756,02, 11092,08, -14913,17, -14585,05, 0,00, 0,00, 0,00
78, -20834,26, -15446,55, -10532,28, -16002,31, -13743,37, 11040,00, -14892,43, -14577,09, 0,00, 0,00, 0,00
79, -20841,37, -15452,95, -10419,89, -16007,56, -13733,94, 11130,81, -14877,23, -14566,99, 0,00, 0,00, 0,00
80, -20845,35, -15461,42, -10374,16, -16020,90, -13754,48, 11206,20, -14889,39, -14576,15, 0,00, 0,00, 0,00
81, -20847,92, -15469,13, -10447,25, -16027,25, -13773,75, 11167,02, -14907,32, -14589,27, 0,00, 0,00, 0,00
82, -20829,86, -15454,02, -10520,00, -16009,30, -13749,47, 11069,03, -14911,76, -14591,82, 0,00, 0,00, 0,00
83, -20836,23, -15456,54, -10520,09, -16016,86, -13762,93, 11008,43, -14920,71, -14604,50, 0,00, 0,00, 0,00
84, -20840,92, -15455,38, -10413,61, -16020,59, -13761,28, 11091,52, -14912,84, -14596,85, 0,00, 0,00, 0,00
85, -20841,57, -15458,11, -10367,50, -16024,10, -13764,52, 11161,05, -14923,92, -14592,02, 0,00, 0,00, 0,00
86, -20846,38, -15467,54, -10444,90, -16029,20, -13778,00, 11108,88, -14936,51, -14606,53, -0,06, 0,98, 0,16
87, -20835,78, -15457,39, -10533,86, -16019,81, -13778,40, 11015,59, -14940,13, -14613,55, 0,00, 0,00, 0,00
88, -20834,08, -15450,22, -10523,02, -16009,97, -13772,05, 10974,93, -14935,79, -14611,25, 0,00, 0,00, 0,00
89, -20841,59, -15453,48, -10412,83, -16011,45, -13767,65, 11069,39, -14928,51, -14611,67, 0,00, 0,00, 0,00
90, -20846,46, -15458,62, -10356,93, -16015,40, -13770,64, 11159,15, -14938,12, -14607,45, 0,00, 0,00, 0,00
91, -20845,44, -15463,25, -10413,70, -16014,06, -13777,82, 11144,15, -14950,95, -14596,58, 0,00, 0,00, 0,00
92, -20847,07, -15464,66, -10492,98, -16011,74, -13777,48, 11088,97, -14933,16, -14584,78, 0,00, 0,00, 0,00
93, -20850,64, -15460,21, -10494,19, -16009,17, -13772,54, 11058,53, -14912,32, -14582,37, 0,00, 0,00, 0,00
94, -20853,95, -15458,22, -10412,11, -16003,96, -13764,07, 11122,41, -14904,17, -14573,65, 0,00, 0,00, 0,00
95, -20858,27, -15464,32, -10355,54, -16008,63, -13764,96, 11205,67, -14913,96, -14574,39, 0,00, 0,00, 0,00
96, -20857,11, -15467,88, -10404,33, -16010,69, -13762,62, 11194,89, -14903,43, -14579,82, -0,08, 0,99, 0,16
97, -20851,70, -15463,70, -10503,22, -16009,55, -13766,37, 11111,75, -14905,33, -14592,34, 0,00, 0,00, 0,00
98, -20854,27, -15459,96, -10514,35, -16007,18, -13768,34, 11049,65, -14931,52, -14585,54, 0,00, 0,00, 0,00
99, -20850,73, -15452,41, -10400,20, -15996,79, -13746,34, 11129,80, -14909,82, -14549,46, 0,00, 0,00, 0,00
100, -20852,03, -15454,31, -10321,41, -15993,32, -13731,06, 11230,05, -14883,13, -14537,13, 0,00, 0,00, 0,00
101, -20844,43, -15450,46, -10380,11, -15993,30, -13734,01, 11208,42, -14883,56, -14546,87, 0,00, 0,00, 0,00
102, -20839,34, -15448,34, -10474,14, -15992,54, -13736,87, 11128,35, -14888,85, -14561,42, 0,00, 0,00, 0,00
103, -20830,04, -15435,02, -10485,49, -15980,11, -13727,59, 11056,25, -14896,57, -14567,55, 0,00, 0,00, 0,00
104, -20836,74, -15433,79, -10375,32, -15975,86, -13709,64, 11126,16, -14879,13, -14552,80, 0,00, 0,00, 0,00
105, -20843,54, -15439,29, -10316,42, -15982,82, -13711,23, 11210,50, -14889,21, -14543,79, 0,00, 0,00, 0,00
106, -20841,75, -15444,59, -10383,50, -15989,92, -13722,50, 11184,34, -14901,04, -14541,51, -0,09, 0,98, 0,15
107, -20836,05, -15440,41, -10476,28, -15986,39, -13722,56, 11106,00, -14873,61, -14542,31, 0,00, 0,00, 0,00
108, -20834,53, -15435,26, -10483,79, -15984,92, -13723,37, 11036,11, -14893,01, -14557,15, 0,00, 0,00, 0,00
109, -20836,32, -15434,57, -10370,94, -15985,99, -13712,62, 11108,64, -14879,76, -14555,77, 0,00, 0,00, 0,00
110, -20838,42, -15437,83, -10300,69, -15994,80, -13718,09, 11204,17, -14874,04, -14577,67, 0,00, 0,00, 0,00
111, -20836,21, -15440,74, -10368,62, -16004,43, -13739,42, 11185,26, -14899,36, -14599,96, 0,00, 0,00, 0,00
112, -20835,31, -15443,09, -10468,89, -16003,65, -13748,22, 11102,29, -14914,45, -14590,70, 0,00, 0,00, 0,00
113, -20833,99, -15440,20, -10462,58, -15999,62, -13744,40, 11050,88, -14920,73, -14577,34, 0,00, 0,00, 0,00
114, -20834,91, -15437,17, -10355,27, -15995,78, -13732,67, 11134,16, -14893,50, -14569,25, 0,00, 0,00, 0,00
115, -20843,02, -15446,87, -10302,61, -16007,04, -13737,43, 11222,50, -14891,09, -14570,23, 0,00, 0,00, 0,00
116, -20846,85, -15454,91, -10375,59, -16017,10, -13751,51, 11194,49, -14907,32, -14579,17, -0,10, 0,98, 0,15
117, -20838,40, -15445,70, -10476,58, -16010,96, -13756,51, 11104,59, -14915,61, -14584,67, 0,00, 0,00, 0,00
118, -20831,56, -15436,02, -10482,25, -16003,38, -13753,05, 11034,18, -14912,99, -14590,79, 0,00, 0,00, 0,00
119, -20839,31, -15438,10, -10375,95, -16004,41, -13747,24, 11108,53, -14901,17, -14578,88, 0,00, 0,00, 0,00
120, -20839,98, -15438,98, -10322,30, -16004,32, -13746,59, 11186,49, -14898,24, -14567,17, 0,00, 0,00, 0,00
121, -20845,37, -15447,42, -10382,25, -16012,57, -13756,29, 11170,66, -14895,78, -14568,58, 0,00, 0,00, 0,00
122, -20845,53, -15446,26, -10486,23, -16013,33, -13765,41, 11083,65, -14914,07, -14582,10, 0,00, 0,00, 0,00
123, -20843,80, -15440,05, -10493,56, -16003,49, -13753,25, 11013,29, -14906,11, -14579,22, 0,00, 0,00, 0,00
124, -20851,88, -15439,58, -10378,18, -15999,27, -13739,66, 11095,03, -14889,46, -14557,29, 0,00, 0,00, 0,00
125, -20857,13, -15447,11, -10323,42, -16005,21, -13738,32, 11182,47, -14887,18, -14553,82, -0,10, 0,98, 0,16
126, -20854,85, -15447,56, -10395,75, -16007,29, -13741,52, 11151,64, -14890,44, -14563,55, 0,00, 0,00, 0,00
127, -20845,17, -15440,45, -10483,62, -15995,98, -13731,62, 11077,26, -14887,00, -14559,41, 0,00, 0,00, 0,00
128, -20844,30, -15436,05, -10472,04, -15988,27, -13721,38, 11027,63, -14889,46, -14561,56, 0,00, 0,00, 0,00
129, -20848,61, -15435,42, -10361,13, -15984,18, -13709,46, 11108,73, -14878,48, -14559,68, 0,00, 0,00, 0,00
130, -20848,90, -15439,38, -10313,41, -15987,22, -13708,26, 11184,43, -14875,24, -14561,18, 0,00, 0,00, 0,00
131, -20844,88, -15442,42, -10375,92, -15988,07, -13712,33, 11162,97, -14868,11, -14558,32, 0,00, 0,00, 0,00
132, -20841,53, -15440,52, -10463,41, -15986,71, -13719,97, 11088,81, -14884,34, -14560,53, 0,00, 0,00, 0,00
133, -20843,36, -15436,85, -10467,81, -15987,78, -13730,16, 11031,66, -14909,37, -14573,83, 0,00, 0,00, 0,00
134, -20844,83, -15436,27, -10376,10, -15988,69, -13731,03, 11098,96, -14907,56, -14568,96, 0,00, 0,00, 0,00
135, -20844,54, -15438,71, -10309,54, -15988,63, -13728,78, 11188,59, -14895,00, -14556,39, -0,10, 0,99, 0,15
136, -20849,06, -15446,37, -10367,30, -15994,26, -13737,14, 11171,42, -14890,42, -14560,64, 0,00, 0,00, 0,00
137, -20846,22, -15446,26, -10488,65, -15996,50, -13750,21, 11067,06, -14902,62, -14578,34, 0,00, 0,00, 0,00
138, -20847,56, -15444,81, -10487,04, -15995,49, -13748,31, 11016,57, -14905,01, -14586,05, 0,00, 0,00, 0,00
139, -20852,03, -15447,45, -10380,91, -15998,37, -13743,68, 11095,63, -14903,85, -14587,62, 0,00, 0,00, 0,00
140, -20862,11, -15461,08, -10327,38, -16011,60, -13751,20, 11172,94, -14911,65, -14603,42, 0,00, 0,00, 0,00
141, -20858,40, -15464,52, -10396,89, -16018,20, -13761,99, 11133,49, -14910,60, -14623,40, 0,00, 0,00, 0,00
142, -20855,65, -15463,81, -10487,01, -16018,44, -13761,28, 11045,52, -14908,39, -14610,91, 0,00, 0,00, 0,00
143, -20855,09, -15461,21, -10487,73, -16013,37, -13756,25, 10994,26, -14908,81, -14579,77, 0,00, 0,00, 0,00
144, -20857,96, -15460,81, -10380,93, -16005,91, -13742,37, 11079,87, -14880,25, -14553,71, 0,00, 0,00, 0,00
145, -20856,46, -15461,30, -10336,76, -16008,74, -13748,65, 11152,36, -14883,87, -14553,89, -0,10, 1,00, 0,15
146, -20857,55, -15468,35, -10405,85, -16014,62, -13760,90, 11111,50, -14899,72, -14572,64, 0,00, 0,00, 0,00
147, -20855,67, -15469,49, -10491,89, -16014,78, -13765,81, 11032,80, -14917,26, -14583,35, 0,00, 0,00, 0,00
148, -20854,94, -15463,56, -10486,10, -16010,42, -13760,78, 10997,82, -14932,62, -14580,91, 0,00, 0,00, 0,00
149, -20863,92, -15468,95, -10375,01, -16010,04, -13741,41, 11101,60, -14889,44, -14560,24, 0,00, 0,00, 0,00
150, -20859,72, -15467,72, -10333,68, -16013,17, -13742,88, 11176,16, -14875,96, -14563,61, 0,00, 0,00, 0,00
151, -20844,50, -15458,15, -10404,69, -16004,81, -13742,08, 11132,13, -14897,73, -14566,07, 0,00, 0,00, 0,00
152, -20841,59, -15455,87, -10495,53, -15997,84, -13739,30, 11041,72, -14902,15, -14573,16, 0,00, 0,00, 0,00
153, -20843,31, -15451,45, -10482,01, -15993,10, -13730,25, 11008,64, -14884,38, -14575,68, 0,00, 0,00, 0,00
154, -20844,95, -15446,53, -10379,79, -15991,76, -13724,19, 11099,94, -14879,60, -14569,40, 0,00, 0,00, 0,00
155, -20841,73, -15442,66, -10320,40, -15992,94, -13721,89, 11192,21, -14886,24, -14570,34, -0,10, 0,99, 0,15
156, -20840,83, -15446,17, -10387,59, -15997,66, -13737,40, 11164,50, -14906,74, -14575,77, 0,00, 0,00, 0,00
157, -20835,09, -15441,55, -10481,18, -15995,18, -13749,36, 11077,37, -14923,77, -14585,94, 0,00, 0,00, 0,00
158, -20832,03, -15433,79, -10480,44, -15991,31, -13749,47, 11032,71, -14922,72, -14590,97, 0,00, 0,00, 0,00
159, -20834,55, -15433,14, -10384,35, -15990,46, -13744,67, 11108,33, -14914,47, -14585,23, 0,00, 0,00, 0,00
160, -20834,17, -15434,37, -10335,27, -15988,72, -13743,71, 11182,04, -14901,06, -14586,08, 0,00, 0,00, 0,00
161, -20832,54, -15436,02, -10401,85, -15989,83, -13753,52, 11140,42, -14905,93, -14594,24, 0,00, 0,00, 0,00
162, -20832,70, -15437,54, -10496,63, -15989,90, -13758,97, 11046,70, -14908,84, -14592,36, 0,00, 0,00, 0,00
163, -20834,17, -15436,14, -10494,88, -15985,03, -13750,28, 11002,49, -14906,74, -14581,88, 0,00, 0,00, 0,00
164, -20840,52, -15435,35, -10386,54, -15982,88, -13738,81, 11087,76, -14892,94, -14569,40, 0,00, 0,00, 0,00
165, -20846,29, -15441,95, -10323,96, -15989,39, -13737,09, 11178,96, -14896,48, -14554,87, -0,10, 0,99, 0,15
166, -20853,64, -15455,11, -10393,87, -16004,23, -13753,16, 11139,91, -14912,06, -14568,51, 0,00, 0,00, 0,00
167, -20846,22, -15450,11, -10500,76, -16001,59, -13757,14, 11024,77, -14911,76, -14571,46, 0,00, 0,00, 0,00
168, -20841,08, -15441,81, -10500,89, -15994,44, -13748,94, 10964,11, -14912,06, -14563,12, 0,00, 0,00, 0,00
169, -20856,03, -15450,35, -10383,30, -16001,99, -13737,78, 11058,21, -14900,72, -14545,42, 0,00, 0,00, 0,00
170, -20856,95, -15453,01, -10317,77, -16003,09, -13727,08, 11155,26, -14871,55, -14537,17, 0,00, 0,00, 0,00
171, -20858,45, -15458,11, -10391,08, -16005,46, -13736,40, 11112,93, -14872,85, -14553,35, 0,00, 0,00, 0,00
172, -20861,35, -15462,53, -10488,85, -16008,34, -13743,91, 11015,90, -14891,18, -14562,21, 0,00, 0,00, 0,00
173, -20865,02, -15461,48, -10485,52, -16009,39, -13742,79, 10974,24, -14893,88, -14563,23, 0,00, 0,00, 0,00
174, -20872,73, -15463,20, -10373,60, -16009,64, -13730,88, 11072,45, -14870,64, -14545,87, 0,00, 0,00, 0,00
175, -20872,19, -15465,71, -10317,99, -16011,13, -13731,30, 11167,47, -14875,55, -14544,10, -0,10, 0,98, 0,16
176, -20864,84, -15463,81, -10391,39, -16010,71, -13739,21, 11127,46, -14893,17, -14560,19, 0,00, 0,00, 0,00
177, -20860,35, -15462,74, -10480,26, -16011,13, -13746,52, 11044,31, -14906,27, -14576,80, 0,00, 0,00, 0,00
178, -20852,08, -15450,06, -10478,77, -16000,52, -13738,61, 10997,06, -14906,29, -14577,63, 0,00, 0,00, 0,00
179, -20852,46, -15445,26, -10373,42, -15997,43, -13731,39, 11087,43, -14887,40, -14558,85, 0,00, 0,00, 0,00
180, -20854,74, -15448,83, -10320,96, -16004,70, -13742,95, 11175,78, -14898,49, -14561,56, 0,00, 0,00, 0,00
181, -20843,34, -15443,42, -10397,45, -16003,25, -13757,74, 11130,79, -14927,84, -14568,98, 0,00, 0,00, 0,00
182, -20838,66, -15440,05, -10488,76, -16005,79, -13766,55, 11038,92, -14940,44, -14579,98, 0,00, 0,00, 0,00
183, -20836,38, -15435,82, -10480,80, -16003,09, -13764,92, 10997,64, -14919,32, -14584,42, 0,00, 0,00, 0,00
184, -20835,87, -15434,19, -10378,67, -15996,50, -13756,96, 11075,24, -14914,16, -14571,01, 0,00, 0,00, 0,00
185, -20840,65, -15442,51, -10322,64, -15998,28, -13755,29, 11153,05, -14914,11, -14562,14, -0,09, 0,98, 0,16
186, -20832,56, -15440,27, -10381,54, -15995,67, -13756,54, 11123,73, -14901,64, -14559,57, 0,00, 0,00, 0,00
187, -20830,64, -15439,31, -10485,74, -15997,12, -13766,66, 11016,59, -14912,46, -14572,64, 0,00, 0,00, 0,00
188, -20828,23, -15432,78, -10466,54, -15989,86, -13760,38, 10986,02, -14909,06, -14567,06, 0,00, 0,00, 0,00
189, -20836,21, -15437,66, -10347,54, -15990,04, -13748,31, 11087,92, -14890,08, -14553,26, 0,00, 0,00, 0,00
190, -20838,91, -15442,73, -10304,47, -15994,28, -13749,88, 11160,32, -14885,97, -14553,71, 0,00, 0,00, 0,00
191, -20839,51, -15449,12, -10379,77, -16002,26, -13762,30, 11115,81, -14906,09, -14568,26, 0,00, 0,00, 0,00
192, -20838,06, -15449,70, -10479,75, -16003,02, -13768,34, 11014,96, -14917,46, -14580,80, 0,00, 0,00, 0,00
193, -20838,58, -15447,71, -10478,39, -15998,26, -13761,19, 10962,52, -14915,79, -14578,59, 0,00, 0,00, 0,00
194, -20850,13, -15456,61, -10373,89, -16000,70, -13751,11, 11052,89, -14899,34, -14566,72, -0,09, 0,99, 0,18
195, -20856,79, -15464,14, -10312,33, -16004,90, -13748,47, 11150,82, -14893,62, -14557,04, 0,00, 0,00, 0,00
196, -20855,12, -15468,01, -10391,62, -16005,70, -13757,52, 11111,12, -14900,28, -14568,17, 0,00, 0,00, 0,00
197, -20854,36, -15469,91, -10490,63, -16002,78, -13759,26, 11019,54, -14902,00, -14569,56, 0,00, 0,00, 0,00
198, -20858,07, -15471,03, -10485,83, -15999,29, -13753,45, 10985,23, -14899,20, -14559,72, 0,00, 0,00, 0,00
199, -20866,02, -15477,11, -10394,01, -15999,09, -13745,79, 11060,87, -14890,15, -14549,31, 0,00, 0,00, 0,00
200, -20873,53, -15487,12, -10331,24, -16007,83, -13745,00, 11161,32, -14884,21, -14546,98, 0,00, 0,00, 0,00
201, -20872,44, -15490,52, -10395,15, -16012,05, -13752,83, 11140,78, -14895,40, -14556,93, 0,00, 0,00, 0,00
202, -20868,17, -15489,40, -10488,94, -16009,12, -13755,51, 11056,18, -14900,63, -14565,69, 0,00, 0,00, 0,00
203, -20860,41, -15478,43, -10490,52, -15997,30, -13750,05, 11005,40, -14894,00, -14565,54, 0,00, 0,00, 0,00
204, -20870,43, -15484,71, -10376,62, -16003,69, -13746,95, 11107,81, -14883,24, -14558,52, -0,10, 0,98, 0,19
205, -20871,30, -15490,79, -10310,10, -16010,80, -13754,01, 11219,32, -14891,16, -14565,47, 0,00, 0,00, 0,00
206, -20861,13, -15487,43, -10384,17, -16012,59, -13773,39, 11186,96, -14923,28, -14577,83, 0,00, 0,00, 0,00
207, -20859,88, -15486,63, -10495,17, -16015,05, -13786,82, 11073,63, -14945,96, -14595,98, 0,00, 0,00, 0,00
208, -20856,41, -15477,67, -10482,14, -16006,91, -13775,07, 11039,91, -14916,86, -14583,80, 0,00, 0,00, 0,00
209, -20852,88, -15471,59, -10380,08, -16005,66, -13766,46, 11123,08, -14899,47, -14571,24, 0,00, 0,00, 0,00
210, -20853,10, -15473,71, -10329,84, -16011,27, -13768,25, 11197,35, -14911,32, -14573,81, 0,00, 0,00, 0,00
211, -20853,55, -15479,95, -10390,05, -16016,90, -13778,49, 11164,90, -14939,03, -14577,14, 0,00, 0,00, 0,00
212, -20845,66, -15475,39, -10492,04, -16013,77, -13783,87, 11058,21, -14952,80, -14582,70, 0,00, 0,00, 0,00
213, -20842,96, -15464,99, -10468,93, -16008,18, -13769,70, 11030,83, -14914,89, -14576,11, 0,00, 0,00, 0,00
214, -20843,65, -15462,24, -10363,21, -16007,38, -13759,60, 11114,65, -14897,59, -14573,25, -0,09, 0,97, 0,20
215, -20842,80, -15463,09, -10323,02, -16007,60, -13759,60, 11174,26, -14895,94, -14578,52, 0,00, 0,00, 0,00
216, -20836,94, -15460,03, -10386,77, -16004,72, -13761,95, 11129,94, -14904,08, -14583,95, 0,00, 0,00, 0,00
217, -20833,26, -15455,40, -10467,19, -16000,03, -13765,37, 11050,75, -14914,09, -14577,56, 0,00, 0,00, 0,00
218, -20833,61, -15451,09, -10465,62, -15995,33, -13762,73, 11007,61, -14919,01, -14577,81, 0,00, 0,00, 0,00
219, -20839,02, -15452,43, -10355,99, -15997,12, -13750,97, 11103,34, -14912,86, -14571,64, 0,00, 0,00, 0,00
220, -20834,60, -15450,55, -10300,69, -15995,94, -13743,08, 11186,02, -14901,73, -14567,57, 0,00, 0,00, 0,00
221, -20828,94, -15449,08, -10372,68, -15995,18, -13744,67, 11134,86, -14898,60, -14568,17, 0,00, 0,00, 0,00
222, -20830,37, -15450,64, -10453,22, -15998,46, -13749,25, 11059,08, -14900,88, -14566,16, 0,00, 0,00, 0,00
223, -20833,37, -15448,21, -10455,16, -15995,89, -13748,76, 11014,47, -14901,62, -14571,97, 0,00, 0,00, 0,00
224, -20840,70, -15448,14, -10339,92, -15992,27, -13737,87, 11120,55, -14877,88, -14554,07, -0,10, 0,97, 0,19
225, -20845,10, -15454,13, -10289,76, -15996,29, -13745,03, 11211,54, -14884,00, -14556,77, 0,00, 0,00, 0,00
226, -20845,97, -15461,46, -10366,81, -16001,30, -13761,54, 11170,49, -14902,06, -14578,90, 0,00, 0,00, 0,00
227, -20839,89, -15457,35, -10466,92, -15997,30, -13771,47, 11067,15, -14922,27, -14590,70, 0,00, 0,00, 0,00
228, -20843,87, -15456,10, -10466,07, -15996,36, -13776,30, 11018,83, -14934,36, -14593,57, 0,00, 0,00, 0,00
229, -20844,88, -15453,53, -10360,97, -15990,01, -13765,72, 11102,78, -14915,74, -14574,01, 0,00, 0,00, 0,00
230, -20852,25, -15463,70, -10305,07, -15996,27, -13769,79, 11186,18, -14906,85, -14567,62, 0,00, 0,00, 0,00
231, -20845,79, -15463,94, -10389,27, -15995,04, -13780,39, 11124,78, -14918,81, -14586,17, 0,00, 0,00, 0,00
232, -20841,79, -15459,56, -10494,64, -15994,04, -13786,69, 11006,20, -14937,22, -14602,91, 0,00, 0,00, 0,00
233, -20847,81, -15458,78, -10476,67, -15998,26, -13783,83, 10977,25, -14938,41, -14603,00, 0,00, 0,00, 0,00
234, -20853,28, -15460,28, -10362,87, -15999,78, -13772,81, 11078,40, -14921,91, -14583,53, -0,10, 0,98, 0,18
235, -20853,01, -15462,29, -10314,99, -16002,98, -13766,71, 11155,20, -14898,38, -14565,92, 0,00, 0,00, 0,00
236, -20849,33, -15461,84, -10383,66, -16003,74, -13771,33, 11115,68, -14899,76, -14576,91, 0,00, 0,00, 0,00
237, -20845,41, -15458,71, -10471,12, -16000,65, -13772,05, 11027,41, -14903,58, -14582,84, 0,00, 0,00, 0,00
238, -20840,56, -15450,35, -10460,77, -15991,91, -13761,21, 10992,57, -14895,65, -14568,78, 0,00, 0,00, 0,00
239, -20845,33, -15451,65, -10362,76, -15988,25, -13748,98, 11075,54, -14882,30, -14554,11, 0,00, 0,00, 0,00
240, -20852,41, -15461,53, -10312,40, -15997,46, -13753,09, 11157,97, -14889,08, -14553,26, 0,00, 0,00, 0,00
241, -20851,03, -15464,25, -10379,95, -16003,74, -13763,00, 11123,26, -14903,05, -14565,69, 0,00, 0,00, 0,00
242, -20850,40, -15465,26, -10479,64, -16000,41, -13764,99, 11024,53, -14908,30, -14574,16, 0,00, 0,00, 0,00
243, -20846,55, -15454,22, -10464,86, -15988,56, -13752,40, 10993,33, -14890,11, -14565,71, 0,00, 0,00, 0,00
244, -20849,42, -15451,00, -10343,76, -15986,97, -13741,00, 11103,47, -14871,78, -14549,55, -0,10, 0,98, 0,19
245, -20854,71, -15460,28, -10294,90, -15999,13, -13748,36, 11186,87, -14877,59, -14555,10, 0,00, 0,00, 0,00
246, -20846,44, -15456,72, -10371,50, -15999,09, -13757,19, 11139,55, -14894,33, -14567,91, 0,00, 0,00, 0,00
247, -20839,83, -15451,25, -10471,90, -15992,78, -13759,51, 11028,60, -14903,81, -14576,67, 0,00, 0,00, 0,00
248, -20839,29, -15444,85, -10462,00, -15986,79, -13755,20, 10984,79, -14898,49, -14575,62, 0,00, 0,00, 0,00
249, -20843,36, -15442,46, -10344,52, -15984,87, -13744,44, 11089,24, -14881,92, -14554,49, 0,00, 0,00, 0,00
250, -20847,67, -15447,67, -10290,88, -15987,69, -13748,47, 11171,87, -14884,94, -14553,00, 0,00, 0,00, 0,00
251, -20848,23, -15452,79, -10362,51, -15991,80, -13763,11, 11133,09, -14900,68, -14565,33, 0,00, 0,00, 0,00
252, -20840,81, -15446,82, -10468,46, -15987,38, -13771,78, 11017,58, -14915,03, -14578,39, 0,00, 0,00, 0,00
253, -20844,10, -15445,88, -10467,25, -15987,20, -13771,04, 10968,67, -14914,40, -14580,96, 0,00, 0,00, 0,00
254, -20841,03, -15439,82, -10365,64, -15979,13, -13758,17, 11047,51, -14896,21, -14564,87, -0,09, 0,98, 0,18
255, -20848,79, -15449,73, -10310,37, -15987,29, -13759,91, 11134,88, -14892,83, -14556,22, 0,00, 0,00, 0,00
0, -20850,73, -15455,85, -10387,06, -15994,21, -13769,77, 11093,80, -14906,51, -14562,03, 0,00, 0,00, 0,00
1, -20845,15, -15450,58, -10476,51, -15990,57, -13774,35, 11010,96, -14921,31, -14569,85, 0,00, 0,00, 0,00
2, -20848,46, -15450,11, -10475,64, -15992,16, -13773,19, 10970,08, -14942,81, -14575,04, 0,00, 0,00, 0,00
3, -20859,34, -15457,24, -10376,66, -16001,39, -13771,89, 11057,27, -14965,25, -14580,91, 0,00, 0,00, 0,00
4, -20860,53, -15458,71, -10319,33, -16004,54, -13766,86, 11145,72, -14952,62, -14585,63, 0,00, 0,00, 0,00
5, -20858,80, -15463,52, -10382,72, -16006,91, -13771,78, 11119,61, -14936,82, -14594,91, 0,00, 0,00, 0,00
6, -20851,96, -15460,39, -10475,23, -16001,61, -13767,27, 11029,45, -14905,62, -14599,53, 0,00, 0,00, 0,00
7, -20848,41, -15451,92, -10467,21, -15992,20, -13749,36, 10990,31, -14858,92, -14573,23, 0,00, 0,00, 0,00
8, -20848,30, -15447,31, -10358,67, -15986,32, -13735,84, 11084,03, -14851,35, -14535,36, -0,09, 0,98, 0,17
9, -20848,21, -15450,24, -10299,73, -15986,79, -13733,72, 11174,51, -14845,60, -14524,72, 0,00, 0,00, 0,00
10, -20847,16, -15456,30, -10364,37, -15991,87, -13743,57, 11143,86, -14847,75, -14536,88, 0,00, 0,00, 0,00
11, -20842,69, -15456,77, -10466,94, -15994,55, -13752,98, 11042,41, -14860,80, -14553,85, 0,00, 0,00, 0,00
12, -20838,11, -15449,70, -10462,61, -15984,11, -13748,69, 10997,50, -14870,30, -14556,46, 0,00, 0,00, 0,00
13, -20844,05, -15453,35, -10355,76, -15984,60, -13741,67, 11088,23, -14863,26, -14550,99, 0,00, 0,00, 0,00
14, -20843,04, -15455,45, -10311,11, -15988,27, -13743,22, 11162,33, -14874,33, -14560,64, 0,00, 0,00, 0,00
15, -20833,17, -15450,46, -10379,88, -15985,59, -13748,16, 11119,39, -14890,06, -14577,92, 0,00, 0,00, 0,00
16, -20829,70, -15447,85, -10472,10, -15983,26, -13753,39, 11026,92, -14899,40, -14579,71, 0,00, 0,00, 0,00
17, -20829,46, -15443,22, -10458,56, -15976,22, -13748,69, 10996,48, -14890,37, -14571,64, -0,09, 0,98, 0,18
18, -20836,90, -15446,06, -10348,21, -15972,22, -13740,80, 11093,44, -14876,45, -14553,24, 0,00, 0,00, 0,00
19, -20838,62, -15451,11, -10293,87, -15975,46, -13743,22, 11182,38, -14879,76, -14552,19, 0,00, 0,00, 0,00
20, -20831,89, -15450,11, -10365,08, -15976,67, -13752,71, 11145,92, -14898,35, -14562,07, 0,00, 0,00, 0,00
21, -20824,79, -15443,69, -10473,22, -15973,83, -13758,39, 11032,78, -14914,69, -14576,49, 0,00, 0,00, 0,00
22, -20828,49, -15442,71, -10463,86, -15973,85, -13754,01, 10994,44, -14911,90, -14578,46, 0,00, 0,00, 0,00
23, -20832,94, -15442,55, -10347,74, -15973,76, -13740,26, 11092,97, -14893,28, -14565,89, 0,00, 0,00, 0,00
24, -20840,74, -15454,04, -10298,83, -15986,93, -13746,52, 11176,43, -14906,71, -14577,43, 0,00, 0,00, 0,00
25, -20838,69, -15458,56, -10381,27, -15994,51, -13755,35, 11122,70, -14924,19, -14599,13, 0,00, 0,00, 0,00
26, -20832,74, -15452,95, -10474,85, -15992,47, -13754,86, 11024,86, -14921,06, -14593,81, 0,00, 0,00, 0,00
27, -20838,17, -15452,30, -10457,51, -15990,91, -13747,48, 11000,50, -14884,12, -14577,36, -0,09, 0,97, 0,18
28, -20848,66, -15458,51, -10352,90, -15997,41, -13742,34, 11100,12, -14860,56, -14568,78, 0,00, 0,00, 0,00
29, -20851,99, -15461,84, -10301,18, -16001,08, -13744,51, 11186,31, -14865,27, -14562,67, 0,00, 0,00, 0,00
30, -20843,58, -15458,51, -10370,67, -15997,90, -13754,19, 11150,82, -14892,23, -14564,75, 0,00, 0,00, 0,00
31, -20832,05, -15448,83, -10470,50, -15990,93, -13756,20, 11048,82, -14906,40, -14574,50, 0,00, 0,00, 0,00
32, -20830,53, -15441,68, -10461,93, -15985,05, -13745,74, 11005,57, -14885,12, -14581,74, 0,00, 0,00, 0,00
33, -20836,18, -15446,26, -10350,53, -15983,96, -13732,00, 11099,00, -14858,08, -14565,36, 0,00, 0,00, 0,00
34, -20837,23, -15451,96, -10297,65, -15987,96, -13731,44, 11180,36, -14855,28, -14552,48, 0,00, 0,00, 0,00
35, -20831,49, -15450,20, -10374,92, -15990,97, -13745,23, 11130,10, -14874,06, -14568,89, 0,00, 0,00, 0,00
36, -20828,70, -15446,98, -10462,23, -15988,69, -13750,32, 11038,99, -14882,62, -14576,64, 0,00, 0,00, 0,00
37, -20819,98, -15435,06, -10462,72, -15977,94, -13745,29, 10983,89, -14881,54, -14572,76, -0,09, 0,98, 0,18
38, -20820,61, -15430,44, -10349,35, -15979,06, -13740,22, 11076,16, -14872,60, -14561,07, 0,00, 0,00, 0,00
39, -20820,94, -15433,12, -10287,05, -15984,27, -13745,56, 11171,63, -14878,39, -14562,25, 0,00, 0,00, 0,00
40, -20817,77, -15434,33, -10360,84, -15984,56, -13757,19, 11130,05, -14888,21, -14582,63, 0,00, 0,00, 0,00
41, -20814,97, -15432,18, -10456,28, -15983,71, -13765,92, 11031,41, -14904,01, -14595,82, 0,00, 0,00, 0,00
42, -20818,17, -15427,64, -10449,55, -15982,21, -13764,07, 10994,69, -14912,75, -14599,87, 0,00, 0,00, 0,00
43, -20830,04, -15435,49, -10346,64, -15990,44, -13761,01, 11092,05, -14915,14, -14593,48, 0,00, 0,00, 0,00
44, -20829,84, -15436,52, -10296,98, -15993,59, -13760,23, 11180,43, -14899,23, -14581,07, 0,00, 0,00, 0,00
45, -20821,92, -15434,19, -10374,38, -15990,26, -13762,28, 11137,61, -14892,97, -14574,61, 0,00, 0,00, 0,00
46, -20811,82, -15425,92, -10461,17, -15982,70, -13759,78, 11052,47, -14894,29, -14578,30, 0,00, 0,00, 0,00
47, -20812,24, -15421,38, -10459,01, -15977,67, -13754,75, 11007,14, -14898,08, -14577,83, -0,09, 0,99, 0,17
48, -20819,33, -15422,21, -10351,63, -15980,31, -13745,34, 11097,15, -14883,60, -14564,02, 0,00, 0,00, 0,00
49, -20824,22, -15429,68, -10309,90, -15991,42, -13748,54, 11169,28, -14865,56, -14572,15, 0,00, 0,00, 0,00
50, -20821,59, -15432,58, -10374,20, -15991,17, -13753,12, 11141,85, -14865,36, -14578,23, 0,00, 0,00, 0,00
51, -20815,80, -15429,79, -10470,50, -15987,89, -13760,00, 11050,23, -14887,13, -14582,14, 0,00, 0,00, 0,00
52, -20814,86, -15426,46, -10483,12, -15984,72, -13761,14, 10991,36, -14893,24, -14586,70, 0,00, 0,00, 0,00
53, -20816,11, -15424,25, -10377,42, -15977,72, -13745,21, 11081,01, -14871,35, -14567,70, 0,00, 0,00, 0,00
54, -20826,51, -15438,10, -10311,60, -15986,88, -13745,34, 11186,91, -14861,94, -14552,30, 0,00, 0,00, 0,00
55, -20819,53, -15438,68, -10392,78, -15987,78, -13754,77, 11142,32, -14877,39, -14570,32, 0,00, 0,00, 0,00
56, -20813,32, -15435,42, -10496,85, -15985,14, -13760,76, 11033,56, -14889,84, -14579,95, 0,00, 0,00, 0,00
57, -20812,09, -15429,57, -10485,92, -15978,52, -13754,39, 10995,52, -14889,14, -14581,23, -0,08, 0,99, 0,17
58, -20815,26, -15427,04, -10380,06, -15979,69, -13746,52, 11083,96, -14877,03, -14573,47, 0,00, 0,00, 0,00
59, -20812,65, -15426,30, -10321,19, -15984,49, -13745,41, 11174,98, -14873,34, -14570,39, 0,00, 0,00, 0,00
60, -20815,20, -15433,25, -10396,09, -15998,73, -13764,27, 11136,17, -14893,59, -14587,13, 0,00, 0,00, 0,00
61, -20809,12, -15428,38, -10500,38, -15994,28, -13771,45, 11030,67, -14904,57, -14599,24, 0,00, 0,00, 0,00
62, -20803,17, -15417,38, -10490,72, -15983,15, -13761,90, 10998,60, -14896,68, -14588,51, 0,00, 0,00, 0,00
63, -20813,52, -15423,80, -10388,78, -15985,23, -13756,47, 11091,18, -14887,18, -14581,56, 0,00, 0,00, 0,00
64, -20813,85, -15426,55, -10352,14, -15988,22, -13759,11, 11162,75, -14894,62, -14582,88, 0,00, 0,00, 0,00
65, -20807,21, -15423,69, -10425,64, -15988,74, -13764,67, 11123,01, -14908,43, -14596,11, 0,00, 0,00, 0,00
66, -20806,81, -15423,75, -10521,88, -15989,52, -13773,48, 11026,90, -14917,75, -14608,14, 0,00, 0,00, 0,00
67, -20816,67, -15428,42, -10509,81, -15990,91, -13772,27, 10998,76, -14908,55, -14598,62, -0,08, 0,99, 0,16
68, -20821,14, -15428,36, -10408,18, -15989,90, -13767,80, 11088,39, -14919,05, -14587,49, 0,00, 0,00, 0,00
69, -20826,04, -15433,03, -10352,14, -15998,17, -13771,00, 11175,33, -14927,10, -14589,70, 0,00, 0,00, 0,00
70, -20822,86, -15434,80, -10421,28, -16003,60, -13771,29, 11139,57, -14900,59, -14594,21, 0,00, 0,00, 0,00
71, -20818,28, -15430,44, -10514,75, -15996,85, -13765,88, 11044,02, -14881,46, -14594,28, 0,00, 0,00, 0,00
72, -20819,87, -15427,15, -10510,17, -15994,28, -13762,91, 10998,35, -14889,21, -14595,71, 0,00, 0,00, 0,00
73, -20824,07, -15425,99, -10395,19, -15993,77, -13749,79, 11102,13, -14869,68, -14571,08, 0,00, 0,00, 0,00
74, -20825,48, -15429,72, -10348,28, -15998,17, -13751,22, 11184,66, -14860,36, -14568,55, 0,00, 0,00, 0,00
75, -20826,66, -15435,91, -10426,53, -16003,18, -13760,38, 11134,16, -14871,60, -14568,80, 0,00, 0,00, 0,00
76, -20828,29, -15438,77, -10501,99, -16008,23, -13765,25, 11058,73, -14886,51, -14562,99, 0,00, 0,00, 0,00
77, -20825,68, -15434,44, -10491,57, -16005,86, -13762,06, 11028,64, -14897,82, -14561,11, -0,08, 0,98, 0,17
78, -20824,83, -15428,87, -10393,14, -15999,07, -13749,88, 11107,32, -14890,46, -14545,71, 0,00, 0,00, 0,00
79, -20824,18, -15429,61, -10335,42, -16002,55, -13750,05, 11187,63, -14886,75, -14543,41, 0,00, 0,00, 0,00
80, -20823,85, -15434,50, -10400,91, -16008,90, -13758,24, 11149,85, -14886,15, -14556,37, 0,00, 0,00, 0,00
81, -20816,38, -15427,80, -10494,26, -16005,55, -13764,96, 11051,84, -14886,02, -14571,01, 0,00, 0,00, 0,00
82, -20809,61, -15413,18, -10488,91, -15997,90, -13764,83, 11003,16, -14890,22, -14581,34, 0,00, 0,00, 0,00
83, -20813,61, -15409,20, -10382,88, -15998,24, -13755,31, 11090,69, -14886,62, -14572,87, 0,00, 0,00, 0,00
84, -20821,97, -15420,54, -10329,43, -16010,08, -13762,35, 11179,25, -14903,07, -14573,78, 0,00, 0,00, 0,00
85, -20812,38, -15417,36, -10399,39, -16009,37, -13769,70, 11142,08, -14912,68, -14573,61, 0,00, 0,00, 0,00
86, -20810,30, -15416,80, -10490,61, -16008,18, -13772,72, 11047,24, -14906,40, -14585,94, -0,09, 0,98, 0,17
87, -20818,77, -15420,87, -10467,63, -16004,61, -13767,00, 11024,53, -14902,78, -14585,09, 0,00, 0,00, 0,00
88, -20820,89, -15418,70, -10372,73, -15999,31, -13760,00, 11104,77, -14902,38, -14571,44, 0,00, 0,00, 0,00
89, -20825,07, -15423,91, -10324,16, -16002,82, -13761,32, 11183,67, -14892,47, -14561,27, 0,00, 0,00, 0,00
90, -20830,55, -15434,46, -10400,24, -16011,87, -13777,70, 11141,18, -14905,42, -14573,58, 0,00, 0,00, 0,00
91, -20821,63, -15427,08, -10498,41, -16009,91, -13781,01, 11041,27, -14913,33, -14580,36, 0,00, 0,00, 0,00
92, -20828,56, -15429,90, -10491,89, -16008,14, -13775,92, 10994,62, -14902,13, -14586,14, 0,00, 0,00, 0,00
93, -20841,32, -15441,48, -10367,34, -16012,25, -13768,00, 11109,20, -14888,56, -14568,11, 0,00, 0,00, 0,00
94, -20840,86, -15445,48, -10320,07, -16016,52, -13773,12, 11193,95, -14892,54, -14563,50, 0,00, 0,00, 0,00
95, -20838,73, -15449,82, -10408,69, -16019,41, -13781,79, 11130,25, -14911,59, -14577,41, 0,00, 0,00, 0,00
96, -20839,07, -15451,78, -10503,46, -16023,45, -13785,28, 11029,42, -14915,68, -14589,41, -0,09, 0,98, 0,17
97, -20835,51, -15443,31, -10487,33, -16015,07, -13774,73, 10993,21, -14905,24, -14590,88, 0,00, 0,00, 0,00
98, -20834,89, -15438,24, -10380,08, -16007,56, -13762,68, 11079,27, -14893,10, -14573,56, 0,00, 0,00, 0,00
99, -20832,67, -15437,81, -10326,80, -16005,01, -13757,86, 11155,82, -14875,98, -14561,27, 0,00, 0,00, 0,00
100, -20835,47, -15446,87, -10389,22, -16013,88, -13768,56, 11125,20, -14883,51, -14570,81, 0,00, 0,00, 0,00
101, -20827,51, -15442,17, -10489,65, -16009,88, -13772,72, 11025,80, -14897,93, -14576,71, 0,00, 0,00, 0,00
102, -20832,03, -15440,83, -10493,21, -16010,98, -13771,16, 10970,01, -14907,09, -14581,74, 0,00, 0,00, 0,00
103, -20837,50, -15441,46, -10383,97, -16016,63, -13766,22, 11061,03, -14905,73, -14574,90, 0,00, 0,00, 0,00
104, -20831,67, -15438,82, -10331,78, -16020,54, -13768,14, 11139,68, -14909,66, -14573,11, 0,00, 0,00, 0,00
105, -20831,80, -15442,19, -10396,56, -16028,01, -13780,65, 11100,55, -14917,64, -14583,26, 0,00, 0,00, 0,00
106, -20823,09, -15433,68, -10484,89, -16022,62, -13782,24, 11004,79, -14922,27, -14593,65, -0,08, 0,99, 0,18
107, -20824,05, -15429,19, -10476,40, -16018,29, -13778,98, 10964,04, -14927,43, -14603,49, 0,00, 0,00, 0,00
108, -20819,58, -15420,18, -10372,97, -16006,51, -13763,24, 11050,46, -14907,74, -14595,67, 0,00, 0,00, 0,00
109, -20821,57, -15422,50, -10318,75, -16008,81, -13760,61, 11134,88, -14892,83, -14590,59, 0,00, 0,00, 0,00
110, -20823,69, -15428,80, -10387,08, -16014,42, -13772,79, 11101,13, -14917,64, -14592,98, 0,00, 0,00, 0,00
111, -20825,14, -15430,77, -10471,46, -16017,77, -13776,88, 11016,71, -14909,64, -14600,14, 0,00, 0,00, 0,00
112, -20814,26, -15414,21, -10453,06, -16005,57, -13763,40, 10993,79, -14890,26, -14590,70, 0,00, 0,00, 0,00
113, -20819,44, -15415,08, -10361,35, -16004,76, -13754,97, 11074,75, -14884,50, -14580,29, 0,00, 0,00, 0,00
114, -20821,30, -15420,45, -10328,61, -16007,45, -13755,31, 11136,94, -14889,30, -14568,20, 0,00, 0,00, 0,00
115, -20813,85, -15418,97, -10382,85, -16007,56, -13756,92, 11115,05, -14887,47, -14560,31, 0,00, 0,00, 0,00
116, -20811,96, -15418,03, -10475,66, -16005,23, -13762,48, 11022,83, -14890,22, -14567,26, -0,08, 0,99, 0,17
117, -20806,95, -15405,74, -10456,77, -15994,17, -13748,09, 10997,33, -14884,41, -14556,86, 0,00, 0,00, 0,00
118, -20814,23, -15410,43, -10354,33, -16000,03, -13742,77, 11087,40, -14870,91, -14551,19, 0,00, 0,00, 0,00
119, -20817,39, -15415,71, -10304,91, -16003,40, -13746,25, 11173,28, -14864,60, -14545,98, 0,00, 0,00, 0,00
120, -20825,70, -15429,72, -10379,70, -16015,70, -13765,05, 11137,49, -14884,16, -14563,14, 0,00, 0,00, 0,00
121, -20812,69, -15418,66, -10479,82, -16005,10, -13768,45, 11035,21, -14897,57, -14573,90, 0,00, 0,00, 0,00
122, -20811,02, -15413,74, -10466,41, -15998,86, -13763,42, 11000,21, -14894,49, -14572,69, 0,00, 0,00, 0,00
123, -20815,11, -15413,79, -10360,95, -15997,28, -13755,73, 11088,66, -14882,42, -14562,97, 0,00, 0,00, 0,00
124, -20817,07, -15418,17, -10307,26, -16001,19, -13757,48, 11176,23, -14882,39, -14559,77, 0,00, 0,00, 0,00
125, -20815,17, -15422,77, -10377,36, -16006,60, -13770,57, 11142,54, -14895,34, -14571,62, 0,00, 0,00, 0,00
126, -20806,37, -15414,32, -10473,02, -16001,12, -13776,34, 11045,99, -14907,90, -14583,31, -0,09, 0,99, 0,17
127, -20794,34, -15395,34, -10466,58, -15985,05, -13765,34, 11003,70, -14912,44, -14580,76, 0,00, 0,00, 0,00
128, -20805,92, -15401,96, -10379,28, -15997,59, -13769,48, 11069,90, -14926,16, -14583,31, 0,00, 0,00, 0,00
129, -20804,27, -15400,78, -10319,38, -15996,94, -13756,40, 11156,20, -14898,38, -14565,80, 0,00, 0,00, 0,00
130, -20815,06, -15417,03, -10385,16, -16013,50, -13770,40, 11125,56, -14905,53, -14580,11, 0,00, 0,00, 0,00
131, -20803,42, -15407,19, -10483,33, -16011,16, -13780,10, 11015,45, -14940,89, -14600,83, 0,00, 0,00, 0,00
132, -20799,95, -15399,97, -10466,41, -16005,61, -13770,64, 10977,14, -14923,54, -14598,24, 0,00, 0,00, 0,00
133, -20812,11, -15409,56, -10347,90, -16011,00, -13757,90, 11082,46, -14882,93, -14579,48, 0,00, 0,00, 0,00
134, -20814,44, -15416,91, -10288,40, -16015,11, -13757,74, 11184,34, -14874,44, -14564,06, 0,00, 0,00, 0,00
135, -20801,43, -15412,67, -10379,30, -16011,09, -13766,86, 11123,70, -14888,47, -14581,52, 0,00, 0,00, 0,00
136, -20784,91, -15397,16, -10463,34, -15993,12, -13754,15, 11030,29, -14869,34, -14583,31, -0,08, 0,99, 0,17
137, -20788,06, -15394,05, -10436,86, -15986,73, -13744,04, 11007,79, -14856,44, -14567,53, 0,00, 0,00, 0,00
138, -20805,38, -15409,54, -10343,72, -15998,80, -13750,55, 11085,88, -14866,50, -14562,25, 0,00, 0,00, 0,00
139, -20804,38, -15411,13, -10295,93, -16000,14, -13750,17, 11163,02, -14870,86, -14555,54, 0,00, 0,00, 0,00
140, -20797,89, -15410,03, -10364,57, -16000,65, -13756,54, 11129,42, -14883,83, -14557,74, 0,00, 0,00, 0,00
141, -20791,14, -15405,76, -10457,13, -15998,91, -13760,83, 11037,38, -14891,92, -14567,30, 0,00, 0,00, 0,00
142, -20792,91, -15403,03, -10440,34, -15999,31, -13757,41, 11013,22, -14884,79, -14572,15, 0,00, 0,00, 0,00
143, -20790,79, -15397,76, -10336,63, -15995,82, -13744,83, 11105,33, -14870,30, -14561,96, 0,00, 0,00, 0,00
144, -20793,74, -15402,47, -10291,84, -16004,79, -13750,12, 11183,99, -14871,69, -14559,84, 0,00, 0,00, 0,00
145, -20801,18, -15414,25, -10372,19, -16020,01, -13773,12, 11136,78, -14892,79, -14576,78, 0,00, 0,00, 0,00
146, -20782,85, -15396,46, -10465,29, -16002,87, -13770,62, 11040,96, -14899,56, -14578,61, -0,08, 0,99, 0,17
147, -20785,42, -15393,40, -10454,22, -16001,37, -13769,48, 11003,07, -14904,03, -14585,81, 0,00, 0,00, 0,00
148, -20799,08, -15402,07, -10348,32, -16008,45, -13768,83, 11103,54, -14898,60, -14577,81, 0,00, 0,00, 0,00
149, -20793,74, -15397,56, -10300,17, -16003,98, -13763,91, 11186,58, -14891,94, -14568,13, 0,00, 0,00, 0,00
150, -20789,67, -15395,70, -10371,08, -16005,46, -13769,48, 11142,81, -14905,64, -14575,35, 0,00, 0,00, 0,00
151, -20786,88, -15392,80, -10458,27, -16004,43, -13773,97, 11049,81, -14923,10, -14587,06, 0,00, 0,00, 0,00
152, -20787,55, -15388,93, -10443,20, -16002,26, -13767,58, 11010,60, -14915,47, -14589,45, 0,00, 0,00, 0,00
153, -20789,16, -15386,58, -10338,96, -16001,26, -13756,89, 11093,53, -14896,19, -14575,82, 0,00, 0,00, 0,00
154, -20797,00, -15394,14, -10283,14, -16011,69, -13758,55, 11178,24, -14895,78, -14570,14, 0,00, 0,00, 0,00
155, -20786,14, -15387,81, -10351,29, -16009,86, -13759,67, 11144,54, -14897,64, -14580,51, 0,00, 0,00, 0,00
156, -20789,27, -15394,21, -10464,44, -16018,47, -13770,66, 11026,85, -14904,75, -14611,98, -0,08, 0,99, 0,16
157, -20782,70, -15383,63, -10453,06, -16008,43, -13759,40, 10987,78, -14898,44, -14613,97, 0,00, 0,00, 0,00
158, -20780,55, -15376,01, -10336,16, -15998,46, -13743,30, 11091,85, -14884,63, -14583,55, 0,00, 0,00, 0,00
159, -20788,71, -15387,05, -10294,70, -16004,83, -13750,55, 11167,15, -14885,93, -14561,45, 0,00, 0,00, 0,00
160, -20772,28, -15376,26, -10374,47, -15990,71, -13750,41, 11113,80, -14893,39, -14556,82, 0,00, 0,00, 0,00
161, -20778,11, -15382,65, -10463,54, -15993,30, -13756,67, 11019,88, -14899,87, -14560,73, 0,00, 0,00, 0,00
162, -20781,04, -15380,70, -10439,72, -15991,02, -13749,23, 11000,92, -14878,86, -14553,64, 0,00, 0,00, 0,00
163, -20789,16, -15384,97, -10339,22, -15991,62, -13746,68, 11094,82, -14876,78, -14551,41, 0,00, 0,00, 0,00
164, -20784,04, -15382,18, -10290,72, -15987,02, -13740,89, 11180,32, -14872,20, -14544,41, 0,00, 0,00, 0,00
165, -20779,97, -15383,16, -10360,46, -15988,31, -13744,87, 11144,47, -14873,28, -14546,92, -0,08, 0,99, 0,16
166, -20782,34, -15386,81, -10455,05, -15993,28, -13755,13, 11049,65, -14878,26, -14561,47, 0,00, 0,00, 0,00
167, -20777,96, -15378,40, -10431,65, -15978,48, -13741,63, 11032,06, -14864,25, -14550,72, 0,00, 0,00, 0,00
168, -20782,07, -15378,94, -10329,72, -15974,59, -13732,17, 11123,66, -14856,18, -14539,79, 0,00, 0,00, 0,00
169, -20794,30, -15393,94, -10291,10, -15988,83, -13741,85, 11201,62, -14868,83, -14550,40, 0,00, 0,00, 0,00
170, -20786,41, -15392,24, -10367,23, -15988,16, -13750,37, 11157,72, -14878,62, -14560,93, 0,00, 0,00, 0,00
171, -20775,97, -15381,15, -10468,33, -15982,77, -13752,45, 11040,58, -14888,85, -14569,07, 0,00, 0,00, 0,00
172, -20782,34, -15381,04, -10440,70, -15982,26, -13746,86, 11016,08, -14884,85, -14559,97, 0,00, 0,00, 0,00
173, -20781,56, -15375,12, -10323,11, -15972,02, -13730,16, 11117,62, -14867,58, -14538,69, 0,00, 0,00, 0,00
174, -20783,79, -15381,55, -10285,65, -15981,18, -13735,66, 11177,86, -14875,33, -14538,56, 0,00, 0,00, 0,00
175, -20790,41, -15394,81, -10369,31, -15996,58, -13756,34, 11114,25, -14901,77, -14566,32, -0,08, 1,00, 0,16
176, -20774,83, -15380,21, -10452,82, -15984,85, -13751,04, 11020,48, -14895,69, -14569,67, 0,00, 0,00, 0,00
177, -20770,04, -15372,34, -10439,81, -15976,89, -13742,46, 10977,83, -14883,04, -14567,57, 0,00, 0,00, 0,00
178, -20779,30, -15376,68, -10316,54, -15980,69, -13732,11, 11091,58, -14862,30, -14549,55, 0,00, 0,00, 0,00
179, -20781,62, -15381,89, -10282,12, -15991,55, -13737,96, 11157,32, -14873,57, -14557,33, 0,00, 0,00, 0,00
180, -20772,59, -15376,43, -10352,90, -15987,96, -13739,55, 11108,73, -14876,00, -14559,97, 0,00, 0,00, 0,00
181, -20768,64, -15376,30, -10440,30, -15986,88, -13742,79, 11015,41, -14882,10, -14564,17, 0,00, 0,00, 0,00
182, -20774,85, -15378,78, -10441,71, -15989,92, -13745,07, 10964,38, -14890,87, -14571,15, 0,00, 0,00, 0,00
183, -20772,17, -15371,45, -10328,76, -15981,12, -13728,15, 11066,33, -14873,86, -14556,17, 0,00, 0,00, 0,00
184, -20780,77, -15382,63, -10277,20, -15992,96, -13735,15, 11157,54, -14889,68, -14581,47, 0,00, 0,00, 0,00
185, -20784,75, -15393,91, -10359,32, -16002,53, -13752,96, 11116,17, -14912,68, -14599,53, -0,08, 0,99, 0,16
186, -20774,47, -15386,20, -10457,04, -15991,35, -13749,54, 11015,19, -14911,65, -14575,84, 0,00, 0,00, 0,00
187, -20770,27, -15378,04, -10439,31, -15980,65, -13729,98, 10991,20, -14862,01, -14540,93, 0,00, 0,00, 0,00
188, -20765,64, -15369,55, -10324,52, -15967,79, -13706,20, 11100,57, -14820,08, -14505,14, 0,00, 0,00, 0,00
189, -20771,70, -15379,52, -10273,76, -15975,60, -13711,14, 11197,67, -14821,93, -14506,97, 0,00, 0,00, 0,00
190, -20769,31, -15384,91, -10356,81, -15977,12, -13723,17, 11151,13, -14840,22, -14526,31, 0,00, 0,00, 0,00
191, -20767,83, -15385,58, -10441,97, -15976,33, -13729,83, 11069,81, -14848,24, -14540,64, 0,00, 0,00, 0,00
192, -20764,46, -15379,07, -10433,03, -15969,07, -13723,93, 11035,03, -14850,25, -14545,87, 0,00, 0,00, 0,00
193, -20768,90, -15379,61, -10323,80, -15964,75, -13714,99, 11130,14, -14844,60, -14537,55, 0,00, 0,00, 0,00
194, -20770,67, -15382,94, -10274,74, -15965,65, -13718,09, 11207,81, -14846,41, -14535,94, 0,00, 0,00, 0,00
195, -20770,00, -15385,55, -10339,20, -15971,57, -13727,79, 11175,22, -14859,33, -14547,74, -0,08, 0,98, 0,16
196, -20763,81, -15380,68, -10438,51, -15972,02, -13735,01, 11073,95, -14872,56, -14563,82, 0,00, 0,00, 0,00
197, -20760,05, -15371,54, -10419,18, -15965,49, -13730,27, 11044,51, -14867,20, -14563,75, 0,00, 0,00, 0,00
198, -20761,91, -15368,70, -10310,12, -15961,56, -13723,34, 11138,43, -14856,98, -14553,09, 0,00, 0,00, 0,00
199, -20762,24, -15373,57, -10268,64, -15967,28, -13730,88, 11206,90, -14863,69, -14560,19, 0,00, 0,00, 0,00
200, -20748,50, -15363,25, -10339,27, -15960,26, -13733,29, 11158,79, -14870,55, -14566,09, 0,00, 0,00, 0,00
201, -20756,52, -15372,32, -10453,04, -15973,56, -13751,89, 11029,56, -14894,58, -14584,58, 0,00, 0,00, 0,00
202, -20754,55, -15365,08, -10440,14, -15966,59, -13745,83, 10981,39, -14893,32, -14570,68, 0,00, 0,00, 0,00
203, -20765,69, -15373,91, -10329,21, -15975,33, -13743,55, 11080,23, -14891,71, -14561,85, 0,00, 0,00, 0,00
204, -20777,04, -15388,71, -10276,48, -15991,96, -13749,76, 11167,62, -14890,80, -14570,68, 0,00, 0,00, 0,00
205, -20770,16, -15388,35, -10353,19, -15993,75, -13754,19, 11123,48, -14879,60, -14587,64, -0,07, 0,98, 0,17
206, -20767,18, -15386,56, -10450,25, -15989,52, -13754,24, 11024,62, -14876,05, -14583,86, 0,00, 0,00, 0,00
207, -20768,19, -15383,57, -10433,06, -15983,75, -13744,56, 11000,17, -14882,66, -14568,33, 0,00, 0,00, 0,00
208, -20775,21, -15386,85, -10337,73, -15984,00, -13733,94, 11083,85, -14874,88, -14554,63, 0,00, 0,00, 0,00
209, -20781,15, -15395,46, -10293,25, -15991,42, -13736,78, 11160,00, -14879,62, -14554,70, 0,00, 0,00, 0,00
210, -20769,84, -15389,24, -10353,24, -15986,30, -13730,21, 11132,29, -14861,61, -14549,67, 0,00, 0,00, 0,00
211, -20786,36, -15406,79, -10472,64, -16007,29, -13756,38, 11012,95, -14888,47, -14594,12, 0,00, 0,00, 0,00
212, -20775,59, -15391,32, -10453,64, -15995,06, -13743,55, 10981,66, -14894,02, -14595,73, 0,00, 0,00, 0,00
213, -20772,86, -15384,95, -10330,57, -15987,82, -13721,87, 11098,11, -14853,78, -14546,65, 0,00, 0,00, 0,00
214, -20774,09, -15389,60, -10273,78, -15993,30, -13718,18, 11194,07, -14826,29, -14519,58, 0,00, 0,00, 0,00
215, -20772,08, -15393,47, -10354,20, -16000,14, -13735,10, 11147,91, -14846,97, -14539,41, -0,08, 0,99, 0,17
216, -20762,80, -15385,11, -10448,28, -15992,81, -13740,85, 11047,44, -14864,13, -14552,01, 0,00, 0,00, 0,00
217, -20770,67, -15388,59, -10441,86, -15996,00, -13747,80, 11006,13, -14878,24, -14566,70, 0,00, 0,00, 0,00
218, -20768,59, -15382,13, -10343,14, -15991,29, -13741,20, 11084,88, -14876,27, -14559,17, 0,00, 0,00, 0,00
219, -20773,84, -15387,81, -10281,02, -15999,69, -13745,00, 11177,64, -14873,90, -14560,46, 0,00, 0,00, 0,00
220, -20760,10, -15378,40, -10347,83, -15991,53, -13748,60, 11140,91, -14879,96, -14570,19, 0,00, 0,00, 0,00
221, -20756,19, -15374,16, -10446,42, -15983,98, -13753,21, 11028,53, -14889,82, -14585,92, 0,00, 0,00, 0,00
222, -20767,92, -15381,44, -10434,29, -15986,62, -13753,16, 10992,16, -14894,31, -14594,21, 0,00, 0,00, 0,00
223, -20762,11, -15369,64, -10317,86, -15972,35, -13728,04, 11095,70, -14865,41, -14565,36, 0,00, 0,00, 0,00
224, -20760,54, -15370,38, -10272,39, -15971,24, -13726,29, 11170,08, -14863,84, -14561,76, 0,00, 0,00, 0,00
225, -20764,26, -15377,11, -10355,32, -15980,20, -13740,04, 11115,79, -14882,28, -14570,59, -0,09, 0,99, 0,17
226, -20761,69, -15374,36, -10446,33, -15979,69, -13743,04, 11019,41, -14889,84, -14574,90, 0,00, 0,00, 0,00
227, -20763,96, -15371,23, -10424,83, -15979,17, -13731,77, 10996,01, -14875,91, -14574,14, 0,00, 0,00, 0,00
228, -20764,95, -15367,65, -10323,44, -15977,67, -13717,49, 11083,98, -14848,75, -14563,32, 0,00, 0,00, 0,00
229, -20780,04, -15385,62, -10286,67, -15998,28, -13732,89, 11150,93, -14864,78, -14578,25, 0,00, 0,00, 0,00
230, -20772,59, -15384,62, -10361,15, -15998,04, -13741,61, 11105,53, -14876,74, -14587,06, 0,00, 0,00, 0,00
231, -20763,92, -15378,51, -10451,79, -15990,86, -13739,84, 11011,56, -14874,46, -14572,13, 0,00, 0,00, 0,00
232, -20760,23, -15369,89, -10433,77, -15979,62, -13725,31, 10985,37, -14862,39, -14549,96, 0,00, 0,00, 0,00
233, -20776,42, -15382,87, -10325,34, -15990,55, -13723,43, 11093,13, -14859,33, -14536,32, 0,00, 0,00, 0,00
234, -20780,91, -15392,39, -10279,99, -15999,91, -13729,09, 11177,66, -14865,29, -14536,10, 0,00, 0,00, 0,00
235, -20775,37, -15393,04, -10349,59, -16001,14, -13736,42, 11148,89, -14858,12, -14550,85, -0,09, 0,99, 0,18
236, -20770,31, -15388,88, -10445,60, -16001,68, -13745,23, 11057,99, -14858,46, -14562,03, 0,00, 0,00, 0,00
237, -20772,01, -15385,49, -10441,64, -16001,52, -13751,04, 11018,69, -14875,33, -14567,32, 0,00, 0,00, 0,00
238, -20767,09, -15377,06, -10346,42, -15996,90, -13747,73, 11099,61, -14875,17, -14557,00, 0,00, 0,00, 0,00
239, -20766,20, -15377,02, -10298,86, -16003,60, -13753,30, 11177,75, -14869,07, -14560,93, 0,00, 0,00, 0,00
240, -20767,47, -15381,55, -10370,72, -16011,87, -13771,85, 11136,49, -14882,91, -14579,24, 0,00, 0,00, 0,00
241, -20765,93, -15380,91, -10477,22, -16017,39, -13790,27, 11019,37, -14910,71, -14602,95, 0,00, 0,00, 0,00
242, -20762,00, -15370,49, -10460,10, -16008,97, -13784,68, 10978,15, -14911,43, -14599,60, 0,00, 0,00, 0,00
243, -20765,51, -15370,09, -10351,09, -16006,89, -13774,93, 11064,02, -14906,29, -14583,22, 0,00, 0,00, 0,00
244, -20760,66, -15367,03, -10291,10, -16002,15, -13764,67, 11146,43, -14894,35, -14568,04, -0,09, 0,98, 0,17
245, -20752,39, -15363,11, -10360,50, -16000,27, -13767,87, 11096,93, -14900,39, -14577,63, 0,00, 0,00, 0,00
246, -20758,27, -15368,79, -10447,12, -16009,48, -13778,93, 11000,34, -14916,93, -14594,62, 0,00, 0,00, 0,00
247, -20761,33, -15365,46, -10424,43, -16006,53, -13773,77, 10976,00, -14921,11, -14589,45, 0,00, 0,00, 0,00
248, -20764,32, -15363,27, -10325,41, -16001,30, -13756,40, 11063,35, -14889,21, -14567,66, 0,00, 0,00, 0,00
249, -20760,81, -15360,90, -10289,11, -15998,95, -13751,96, 11126,34, -14876,00, -14558,43, 0,00, 0,00, 0,00
250, -20762,29, -15364,68, -10369,13, -16003,89, -13761,12, 11069,90, -14895,34, -14576,15, 0,00, 0,00, 0,00
251, -20760,57, -15361,79, -10452,95, -15999,69, -13758,55, 10978,30, -14886,44, -14577,18, 0,00, 0,00, 0,00
252, -20771,61, -15366,64, -10439,94, -15999,98, -13756,13, 10946,05, -14879,80, -14564,53, 0,00, 0,00, 0,00
253, -20776,62, -15368,25, -10342,73, -16000,54, -13748,45, 11035,30, -14865,50, -14543,03, 0,00, 0,00, 0,00
254, -20779,21, -15371,12, -10292,91, -16001,37, -13744,13, 11122,41, -14865,85, -14532,97, -0,09, 0,99, 0,18
255, -20787,61, -15382,60, -10368,64, -16000,50, -13746,90, 11080,38, -14870,53, -14549,82, 0,00, 0,00, 0,00
0, -20789,11, -15384,71, -10453,08, -15995,51, -13740,44, 10999,70, -14855,13, -14544,84, 0,00, 0,00, 0,00
1, -20786,96, -15378,38, -10437,57, -15989,97, -13737,47, 10974,57, -14853,99, -14528,03, 0,00, 0,00, 0,00
2, -20791,19, -15376,59, -10322,13, -15985,30, -13726,74, 11081,95, -14850,90, -14512,81, 0,00, 0,00, 0,00
3, -20794,92, -15385,17, -10278,76, -15992,92, -13735,33, 11165,08, -14870,10, -14516,59, 0,00, 0,00, 0,00
4, -20798,01, -15395,81, -10366,69, -16007,04, -13756,29, 11111,90, -14878,75, -14544,32, 0,00, 0,00, 0,00
5, -20792,26, -15390,65, -10460,19, -16001,30, -13761,66, 11012,06, -14874,04, -14557,22, 0,00, 0,00, 0,00
6, -20780,91, -15374,02, -10447,05, -15984,89, -13753,52, 10966,37, -14873,77, -14549,13, 0,00, 0,00, 0,00
7, -20787,17, -15374,78, -10334,17, -15987,00, -13747,98, 11063,06, -14867,04, -14540,21, 0,00, 0,00, 0,00
8, -20789,40, -15378,49, -10295,19, -15994,28, -13756,94, 11134,63, -14877,63, -14545,20, -0,07, 0,99, 0,18
9, -20779,63, -15373,04, -10378,38, -15992,34, -13766,26, 11076,45, -14890,06, -14560,95, 0,00, 0,00, 0,00
10, -20778,00, -15373,57, -10465,85, -15992,90, -13773,93, 10980,65, -14899,27, -14578,01, 0,00, 0,00, 0,00
11, -20769,93, -15363,85, -10445,01, -15983,80, -13764,90, 10949,58, -14888,16, -14578,21, 0,00, 0,00, 0,00
12, -20769,22, -15359,02, -10334,15, -15978,72, -13754,77, 11045,29, -14878,10, -14556,30, 0,00, 0,00, 0,00
13, -20766,96, -15357,86, -10289,98, -15981,03, -13755,93, 11119,37, -14881,28, -14548,97, 0,00, 0,00, 0,00
14, -20767,88, -15361,57, -10359,54, -15988,34, -13772,83, 11079,60, -14909,53, -14572,49, 0,00, 0,00, 0,00
15, -20763,38, -15357,03, -10447,23, -15984,56, -13778,55, 10988,63, -14924,75, -14589,52, 0,00, 0,00, 0,00
16, -20764,79, -15353,21, -10429,12, -15977,07, -13767,76, 10964,94, -14898,13, -14567,17, 0,00, 0,00, 0,00
17, -20765,48, -15351,56, -10328,58, -15972,76, -13753,94, 11060,04, -14867,06, -14542,85, 0,00, 0,00, 0,00
18, -20761,19, -15351,85, -10292,11, -15970,21, -13749,59, 11127,70, -14869,41, -14545,20, -0,07, 0,99, 0,18
19, -20755,83, -15349,48, -10361,75, -15966,77, -13746,19, 11085,08, -14869,72, -14547,32, 0,00, 0,00, 0,00
20, -20761,89, -15358,82, -10455,05, -15974,50, -13755,06, 10990,55, -14874,73, -14549,71, 0,00, 0,00, 0,00
21, -20765,13, -15358,15, -10436,05, -15974,21, -13749,70, 10966,95, -14869,48, -14552,13, 0,00, 0,00, 0,00
22, -20768,84, -15357,57, -10319,33, -15971,91, -13734,25, 11076,16, -14849,69, -14534,45, 0,00, 0,00, 0,00
23, -20763,79, -15356,85, -10268,30, -15969,78, -13728,64, 11164,38, -14842,00, -14515,76, 0,00, 0,00, 0,00
24, -20768,77, -15365,75, -10339,49, -15978,55, -13740,60, 11130,90, -14857,49, -14519,74, 0,00, 0,00, 0,00
25, -20765,93, -15364,92, -10447,12, -15978,28, -13750,61, 11019,37, -14879,38, -14536,25, 0,00, 0,00, 0,00
26, -20763,00, -15358,38, -10430,37, -15968,76, -13737,96, 10987,13, -14870,50, -14531,00, 0,00, 0,00, 0,00
27, -20765,31, -15357,08, -10316,47, -15966,52, -13722,94, 11092,28, -14855,24, -14516,76, 0,00, 0,00, 0,00
28, -20774,29, -15370,69, -10271,68, -15983,44, -13734,23, 11177,30, -14872,49, -14529,13, -0,08, 0,99, 0,17
29, -20762,78, -15362,53, -10347,99, -15980,56, -13738,75, 11132,17, -14873,79, -14544,86, 0,00, 0,00, 0,00
30, -20758,64, -15359,40, -10441,04, -15984,07, -13744,78, 11038,07, -14869,70, -14561,31, 0,00, 0,00, 0,00
31, -20758,42, -15356,79, -10440,68, -15985,48, -13748,58, 10990,67, -14876,25, -14568,51, 0,00, 0,00, 0,00
32, -20753,88, -15348,09, -10341,28, -15977,83, -13740,89, 11067,15, -14877,03, -14542,54, 0,00, 0,00, 0,00
33, -20761,60, -15358,26, -10282,38, -15989,03, -13747,35, 11154,95, -14875,38, -14539,23, 0,00, 0,00, 0,00
34, -20762,24, -15364,30, -10361,02, -16000,54, -13766,42, 11110,56, -14895,36, -14564,35, 0,00, 0,00, 0,00
35, -20754,29, -15356,65, -10455,01, -15997,14, -13771,20, 11010,98, -14901,04, -14579,24, 0,00, 0,00, 0,00
36, -20754,62, -15351,00, -10444,05, -15992,47, -13766,08, 10971,15, -14886,48, -14575,59, 0,00, 0,00, 0,00
37, -20766,80, -15356,83, -10331,00, -15996,50, -13759,91, 11077,19, -14871,67, -14554,14, 0,00, 0,00, 0,00
38, -20767,01, -15357,93, -10278,65, -15998,48, -13759,87, 11167,71, -14869,81, -14560,89, -0,09, 0,99, 0,17
39, -20766,16, -15360,25, -10352,66, -15999,67, -13770,55, 11128,17, -14887,42, -14577,41, 0,00, 0,00, 0,00
40, -20762,13, -15355,85, -10442,98, -15994,37, -13773,26, 11036,75, -14900,39, -14569,85, 0,00, 0,00, 0,00
41, -20762,56, -15350,35, -10436,16, -15990,10, -13770,82, 11000,81, -14901,10, -14559,68, 0,00, 0,00, 0,00
42, -20762,54, -15348,29, -10336,38, -15984,38, -13752,74, 11083,58, -14858,70, -14536,88, 0,00, 0,00, 0,00
43, -20764,99, -15353,77, -10287,64, -15989,01, -13748,78, 11158,86, -14852,40, -14538,11, 0,00, 0,00, 0,00
44, -20757,42, -15353,66, -10364,15, -15989,03, -13753,77, 11108,84, -14866,64, -14545,20, 0,00, 0,00, 0,00
45, -20750,93, -15348,63, -10454,69, -15986,68, -13756,60, 11008,03, -14876,23, -14560,10, 0,00, 0,00, 0,00
46, -20754,02, -15345,95, -10432,61, -15981,00, -13747,75, 10982,93, -14861,52, -14556,42, 0,00, 0,00, 0,00
47, -20752,50, -15340,23, -10326,51, -15969,45, -13732,04, 11078,49, -14842,99, -14529,84, 0,00, 0,00, 0,00
48, -20760,46, -15351,20, -10288,66, -15976,27, -13736,22, 11146,95, -14846,18, -14528,23, -0,08, 0,99, 0,16
49, -20761,19, -15357,48, -10360,21, -15979,06, -13743,80, 11098,80, -14863,19, -14536,99, 0,00, 0,00, 0,00
50, -20757,82, -15355,40, -10430,31, -15978,03, -13744,29, 11024,82, -14870,39, -14544,21, 0,00, 0,00, 0,00
51, -20755,79, -15350,55, -10409,90, -15973,92, -13737,92, 11002,33, -14868,89, -14546,78, 0,00, 0,00, 0,00
52, -20757,35, -15348,07, -10311,40, -15970,92, -13729,83, 11088,39, -14856,71, -14540,64, 0,00, 0,00, 0,00
53, -20761,10, -15355,96, -10277,89, -15982,97, -13738,83, 11151,13, -14866,84, -14545,24, 0,00, 0,00, 0,00
54, -20757,28, -15357,37, -10358,49, -15985,90, -13752,36, 11098,38, -14893,88, -14555,34, 0,00, 0,00, 0,00
55, -20752,12, -15353,84, -10438,51, -15981,45, -13755,75, 11018,43, -14894,11, -14561,78, 0,00, 0,00, 0,00
56, -20748,36, -15344,96, -10424,99, -15972,91, -13748,13, 10982,82, -14881,84, -14565,40, 0,00, 0,00, 0,00
57, -20750,26, -15343,58, -10320,49, -15969,78, -13741,00, 11070,01, -14880,58, -14557,67, -0,09, 0,99, 0,16
58, -20749,75, -15346,46, -10283,25, -15974,77, -13745,36, 11132,40, -14876,11, -14555,68, 0,00, 0,00, 0,00
59, -20752,45, -15354,53, -10361,87, -15983,64, -13757,68, 11084,77, -14877,59, -14567,88, 0,00, 0,00, 0,00
60, -20747,92, -15351,31, -10450,42, -15981,65, -13761,77, 10990,26, -14882,68, -14579,89, 0,00, 0,00, 0,00
61, -20743,29, -15342,77, -10434,55, -15969,00, -13749,59, 10956,74, -14875,17, -14563,70, 0,00, 0,00, 0,00
62, -20754,89, -15349,28, -10315,82, -15972,42, -13740,22, 11069,86, -14860,69, -14541,08, 0,00, 0,00, 0,00
63, -20760,61, -15357,73, -10275,45, -15979,19, -13744,36, 11150,75, -14858,77, -14530,44, 0,00, 0,00, 0,00
64, -20757,10, -15359,76, -10356,52, -15982,23, -13751,49, 11101,35, -14863,48, -14540,59, 0,00, 0,00, 0,00
65, -20755,96, -15360,61, -10447,63, -15982,46, -13753,74, 11004,84, -14867,87, -14550,00, 0,00, 0,00, 0,00
66, -20759,43, -15360,43, -10426,64, -15981,52, -13744,44, 10982,35, -14857,56, -14547,79, 0,00, 0,00, 0,00
67, -20761,24, -15361,33, -10323,89, -15981,81, -13730,85, 11070,68, -14845,71, -14538,54, -0,09, 0,99, 0,16
68, -20762,74, -15367,09, -10266,87, -15984,89, -13727,08, 11157,81, -14847,06, -14524,63, 0,00, 0,00, 0,00
69, -20762,96, -15374,76, -10344,25, -15995,78, -13742,50, 11114,76, -14866,75, -14547,92, 0,00, 0,00, 0,00
70, -20759,67, -15370,89, -10433,10, -15997,30, -13749,41, 11023,72, -14879,42, -14564,98, 0,00, 0,00, 0,00
71, -20762,51, -15368,10, -10412,67, -15989,52, -13739,73, 10999,00, -14867,31, -14551,81, 0,00, 0,00, 0,00
72, -20763,29, -15364,23, -10310,21, -15986,10, -13730,32, 11089,01, -14848,58, -14535,92, 0,00, 0,00, 0,00
73, -20760,32, -15362,11, -10265,13, -15987,78, -13732,42, 11165,01, -14851,53, -14535,50, 0,00, 0,00, 0,00
74, -20763,03, -15369,24, -10351,63, -15998,86, -13755,04, 11110,14, -14879,22, -14557,38, 0,00, 0,00, 0,00
75, -20752,52, -15358,42, -10442,27, -15990,71, -13756,67, 11011,54, -14880,96, -14562,74, 0,00, 0,00, 0,00
76, -20753,24, -15353,05, -10422,55, -15986,68, -13753,88, 10985,93, -14878,24, -14564,08, 0,00, 0,00, 0,00
77, -20751,72, -15347,02, -10325,08, -15983,20, -13751,33, 11068,00, -14879,24, -14558,72, -0,09, 0,98, 0,16
78, -20749,17, -15344,90, -10281,56, -15983,49, -13756,83, 11136,17, -14891,54, -14563,99, 0,00, 0,00, 0,00
79, -20739,71, -15341,16, -10361,62, -15984,76, -13767,42, 11081,82, -14902,67, -14595,06, 0,00, 0,00, 0,00
80, -20732,25, -15331,51, -10466,79, -15981,59, -13771,22, 10965,01, -14901,97, -14596,05, 0,00, 0,00, 0,00
81, -20736,29, -15327,80, -10443,54, -15976,71, -13761,83, 10942,25, -14887,51, -14565,83, 0,00, 0,00, 0,00
82, -20736,65, -15324,94, -10336,18, -15971,55, -13749,70, 11044,60, -14870,41, -14557,47, 0,00, 0,00, 0,00
83, -20741,70, -15331,26, -10282,16, -15972,53, -13745,58, 11136,40, -14845,29, -14539,97, 0,00, 0,00, 0,00
84, -20739,56, -15332,80, -10352,75, -15972,47, -13751,69, 11105,67, -14849,07, -14524,61, 0,00, 0,00, 0,00
85, -20736,65, -15331,08, -10449,95, -15969,25, -13759,35, 11011,77, -14876,29, -14531,29, 0,00, 0,00, 0,00
86, -20734,30, -15323,51, -10443,90, -15959,19, -13752,36, 10967,02, -14874,55, -14529,77, 0,00, 0,00, 0,00
87, -20736,47, -15321,54, -10330,89, -15955,59, -13735,35, 11066,33, -14846,52, -14515,49, -0,10, 0,98, 0,16
88, -20742,06, -15329,14, -10281,56, -15962,21, -13732,98, 11150,12, -14843,37, -14516,65, 0,00, 0,00, 0,00
89, -20741,23, -15332,87, -10350,29, -15968,67, -13741,16, 11119,17, -14847,84, -14523,63, 0,00, 0,00, 0,00
90, -20737,97, -15331,44, -10442,35, -15969,65, -13748,56, 11027,77, -14854,30, -14544,37, 0,00, 0,00, 0,00
91, -20730,73, -15321,43, -10436,34, -15960,08, -13739,48, 10983,22, -14855,44, -14558,41, 0,00, 0,00, 0,00
92, -20739,00, -15327,42, -10319,71, -15963,39, -13728,37, 11096,28, -14841,38, -14549,02, 0,00, 0,00, 0,00
93, -20742,17, -15334,62, -10280,26, -15970,30, -13731,75, 11169,68, -14849,25, -14541,15, 0,00, 0,00, 0,00
94, -20735,60, -15335,73, -10361,02, -15969,78, -13739,59, 11115,48, -14868,92, -14539,56, 0,00, 0,00, 0,00
95, -20733,75, -15335,46, -10440,97, -15967,50, -13739,04, 11027,55, -14863,13, -14543,03, 0,00, 0,00, 0,00
96, -20733,39, -15333,05, -10417,97, -15965,09, -13730,09, 11005,95, -14853,47, -14545,49, 0,00, 0,00, 0,00
97, -20738,42, -15334,79, -10328,47, -15965,25, -13724,40, 11081,91, -14859,37, -14547,72, -0,10, 0,98, 0,16
98, -20744,18, -15341,81, -10287,19, -15974,19, -13726,90, 11150,12, -14864,07, -14550,69, 0,00, 0,00, 0,00
99, -20740,36, -15344,79, -10364,91, -15979,49, -13737,85, 11102,56, -14874,91, -14556,80, 0,00, 0,00, 0,00
100, -20733,30, -15339,26, -10453,78, -15973,05, -13741,03, 11005,69, -14877,63, -14561,65, 0,00, 0,00, 0,00
101, -20734,37, -15335,80, -10423,98, -15967,24, -13732,84, 10994,24, -14862,48, -14552,57, 0,00, 0,00, 0,00
102, -20737,03, -15336,43, -10324,70, -15964,60, -13722,63, 11089,39, -14846,30, -14528,72, 0,00, 0,00, 0,00
103, -20736,56, -15339,73, -10294,30, -15968,69, -13723,64, 11147,35, -14844,82, -14536,34, 0,00, 0,00, 0,00
104, -20733,81, -15343,85, -10367,28, -15973,61, -13729,80, 11100,12, -14849,29, -14548,66, 0,00, 0,00, 0,00
105, -20734,53, -15346,33, -10444,50, -15974,72, -13733,13, 11023,68, -14849,96, -14548,17, 0,00, 0,00, 0,00
106, -20732,25, -15340,83, -10426,95, -15966,43, -13724,86, 10996,61, -14848,51, -14542,09, 0,00, 0,00, 0,00
107, -20738,55, -15344,72, -10319,31, -15966,88, -13715,79, 11095,29, -14835,81, -14528,72, -0,09, 0,98, 0,17
108, -20735,62, -15346,75, -10272,95, -15970,01, -13717,42, 11178,98, -14834,32, -14529,77, 0,00, 0,00, 0,00
109, -20728,09, -15346,30, -10358,27, -15971,13, -13726,03, 11124,04, -14846,88, -14544,32, 0,00, 0,00, 0,00
110, -20720,49, -15341,41, -10454,49, -15967,35, -13726,50, 11016,91, -14861,50, -14548,46, 0,00, 0,00, 0,00
111, -20722,35, -15338,97, -10439,85, -15965,07, -13721,00, 10977,92, -14858,50, -14554,52, 0,00, 0,00, 0,00
112, -20728,58, -15339,80, -10335,02, -15967,21, -13714,67, 11065,45, -14849,20, -14558,94, 0,00, 0,00, 0,00
113, -20731,60, -15346,42, -10282,90, -15975,01, -13718,81, 11149,34, -14853,49, -14558,63, 0,00, 0,00, 0,00
114, -20723,26, -15344,85, -10356,55, -15975,04, -13727,23, 11103,79, -14857,56, -14552,71, 0,00, 0,00, 0,00
115, -20716,98, -15338,48, -10425,50, -15971,80, -13727,59, 11031,08, -14854,19, -14551,79, 0,00, 0,00, 0,00
116, -20717,63, -15334,95, -10414,93, -15972,15, -13731,39, 10996,95, -14857,96, -14564,06, 0,00, 0,00, 0,00
117, -20721,05, -15331,60, -10320,67, -15971,19, -13727,41, 11072,88, -14849,25, -14557,27, -0,09, 0,98, 0,16
118, -20727,93, -15338,93, -10278,78, -15983,98, -13733,51, 11144,13, -14859,84, -14568,40, 0,00, 0,00, 0,00
119, -20723,96, -15340,83, -10356,03, -15992,02, -13746,64, 11098,80, -14883,71, -14589,09, 0,00, 0,00, 0,00
120, -20714,05, -15331,55, -10448,66, -15985,54, -13747,37, 11002,38, -14887,27, -14582,55, 0,00, 0,00, 0,00
121, -20712,87, -15327,17, -10435,67, -15980,49, -13740,62, 10965,50, -14876,25, -14568,55, 0,00, 0,00, 0,00
122, -20717,76, -15326,34, -10317,27, -15978,03, -13725,36, 11072,50, -14855,53, -14549,26, 0,00, 0,00, 0,00
123, -20720,71, -15331,55, -10278,05, -15984,09, -13731,88, 11149,41, -14866,26, -14557,94, 0,00, 0,00, 0,00
124, -20716,40, -15329,92, -10358,27, -15982,28, -13739,24, 11099,45, -14879,73, -14568,44, 0,00, 0,00, 0,00
125, -20715,55, -15329,32, -10444,92, -15981,16, -13743,44, 11013,51, -14892,79, -14567,26, 0,00, 0,00, 0,00
126, -20716,98, -15325,41, -10437,19, -15975,33, -13738,14, 10974,95, -14889,37, -14572,93, 0,00, 0,00, 0,00
127, -20725,90, -15328,96, -10335,04, -15972,40, -13721,78, 11062,79, -14849,18, -14547,90, -0,09, 0,98, 0,17
128, -20728,65, -15334,57, -10287,41, -15977,54, -13720,15, 11147,98, -14842,83, -14542,54, 0,00, 0,00, 0,00
129, -20723,17, -15332,76, -10367,10, -15975,64, -13724,33, 11100,86, -14854,12, -14552,10, 0,00, 0,00, 0,00
130, -20724,92, -15334,55, -10447,41, -15974,99, -13727,48, 11021,64, -14865,00, -14555,25, 0,00, 0,00, 0,00
131, -20723,24, -15328,11, -10435,16, -15965,31, -13717,65, 10988,25, -14858,57, -14544,82, 0,00, 0,00, 0,00
132, -20733,57, -15332,63, -10327,80, -15967,17, -13712,50, 11083,80, -14862,30, -14534,38, 0,00, 0,00, 0,00
133, -20731,40, -15333,81, -10291,32, -15969,27, -13715,14, 11144,89, -14864,51, -14536,34, 0,00, 0,00, 0,00
134, -20730,86, -15337,14, -10353,91, -15973,81, -13719,39, 11111,01, -14840,91, -14543,09, 0,00, 0,00, 0,00
135, -20724,47, -15331,84, -10443,90, -15969,74, -13728,75, 11016,12, -14854,34, -14559,95, 0,00, 0,00, 0,00
136, -20728,72, -15329,59, -10421,46, -15965,98, -13729,07, 10991,67, -14867,02, -14560,13, -0,10, 0,99, 0,17
137, -20732,58, -15331,89, -10324,29, -15964,82, -13721,15, 11078,57, -14854,90, -14543,03, 0,00, 0,00, 0,00
138, -20733,54, -15336,29, -10284,13, -15967,44, -13721,33, 11150,03, -14846,72, -14532,21, 0,00, 0,00, 0,00
139, -20731,55, -15340,94, -10369,35, -15971,01, -13734,34, 11093,68, -14854,48, -14549,22, 0,00, 0,00, 0,00
140, -20730,64, -15341,05, -10458,38, -15971,44, -13744,85, 10997,28, -14870,44, -14560,51, 0,00, 0,00, 0,00
141, -20730,28, -15337,81, -10442,87, -15968,76, -13742,57, 10962,93, -14871,20, -14559,46, 0,00, 0,00, 0,00
142, -20736,25, -15340,67, -10340,34, -15974,50, -13740,06, 11050,32, -14860,76, -14551,97, 0,00, 0,00, 0,00
143, -20738,46, -15345,57, -10293,83, -15984,72, -13746,77, 11124,19, -14865,68, -14554,79, 0,00, 0,00, 0,00
144, -20735,65, -15347,11, -10377,00, -15991,29, -13761,63, 11070,57, -14891,07, -14574,99, 0,00, 0,00, 0,00
145, -20732,00, -15344,61, -10476,73, -15992,67, -13770,46, 10959,66, -14916,19, -14593,19, 0,00, 0,00, 0,00
146, -20732,58, -15342,55, -10445,86, -15986,79, -13757,36, 10942,23, -14894,84, -14578,61, -0,10, 0,98, 0,17
147, -20732,83, -15340,38, -10330,80, -15979,71, -13734,88, 11046,70, -14841,04, -14550,96, 0,00, 0,00, 0,00
148, -20734,35, -15344,58, -10293,47, -15983,26, -13737,36, 11116,06, -14841,31, -14547,01, 0,00, 0,00, 0,00
149, -20731,91, -15347,20, -10363,30, -15989,50, -13747,71, 11083,22, -14855,73, -14556,73, 0,00, 0,00, 0,00
150, -20720,71, -15336,58, -10463,68, -15982,99, -13751,78, 10977,90, -14866,86, -14571,75, 0,00, 0,00, 0,00
151, -20720,87, -15330,97, -10440,54, -15976,27, -13744,51, 10954,01, -14857,14, -14566,61, 0,00, 0,00, 0,00
152, -20731,20, -15336,07, -10321,52, -15979,82, -13737,96, 11069,01, -14846,72, -14554,09, 0,00, 0,00, 0,00
153, -20732,00, -15338,17, -10291,99, -15982,52, -13741,67, 11136,40, -14859,15, -14559,08, 0,00, 0,00, 0,00
154, -20726,62, -15334,79, -10381,92, -15981,83, -13745,29, 11069,63, -14870,10, -14567,97, 0,00, 0,00, 0,00
155, -20727,26, -15334,24, -10468,84, -15980,40, -13745,41, 10970,64, -14868,13, -14573,72, 0,00, 0,00, 0,00
156, -20729,01, -15331,17, -10435,56, -15974,21, -13738,52, 10960,92, -14864,02, -14564,64, -0,10, 0,98, 0,18
157, -20727,60, -15326,23, -10331,15, -15966,10, -13727,97, 11052,60, -14865,29, -14548,30, 0,00, 0,00, 0,00
158, -20727,60, -15326,50, -10281,33, -15964,78, -13722,81, 11133,43, -14859,26, -14542,98, 0,00, 0,00, 0,00
159, -20723,38, -15326,28, -10354,47, -15965,90, -13728,78, 11091,00, -14858,79, -14562,85, 0,00, 0,00, 0,00
160, -20717,21, -15322,21, -10439,90, -15963,97, -13732,87, 11002,49, -14870,37, -14582,77, 0,00, 0,00, 0,00
161, -20713,52, -15314,59, -10424,88, -15954,58, -13726,74, 10969,41, -14867,87, -14579,35, 0,00, 0,00, 0,00
162, -20717,07, -15314,10, -10312,56, -15950,03, -13717,06, 11068,63, -14851,21, -14547,52, 0,00, 0,00, 0,00
163, -20720,29, -15318,83, -10264,05, -15958,63, -13725,07, 11147,69, -14852,60, -14540,12, 0,00, 0,00, 0,00
164, -20716,51, -15319,82, -10331,22, -15965,18, -13732,89, 11118,07, -14849,63, -14542,25, 0,00, 0,00, 0,00
165, -20708,51, -15312,42, -10434,22, -15965,18, -13741,16, 11010,85, -14856,22, -14558,74, 0,00, 0,00, 0,00
166, -20711,64, -15307,73, -10423,00, -15963,21, -13738,19, 10969,92, -14857,58, -14556,44, -0,10, 0,98, 0,17
167, -20722,12, -15312,73, -10310,41, -15967,77, -13731,82, 11073,59, -14854,28, -14535,99, 0,00, 0,00, 0,00
168, -20722,70, -15316,67, -10276,59, -15972,89, -13738,75, 11137,47, -14859,91, -14543,54, 0,00, 0,00, 0,00
169, -20721,50, -15320,94, -10355,56, -15980,96, -13751,89, 11085,24, -14876,11, -14565,20, 0,00, 0,00, 0,00
170, -20717,70, -15318,19, -10457,84, -15981,81, -13757,41, 10968,85, -14887,31, -14576,18, 0,00, 0,00, 0,00
171, -20720,60, -15317,78, -10427,63, -15979,73, -13743,30, 10949,25, -14863,06, -14553,69, 0,00, 0,00, 0,00
172, -20727,64, -15321,54, -10327,11, -15983,15, -13733,02, 11040,60, -14845,60, -14534,89, 0,00, 0,00, 0,00
173, -20734,84, -15331,93, -10293,65, -15992,20, -13736,11, 11103,97, -14849,76, -14532,14, 0,00, 0,00, 0,00
174, -20734,10, -15337,19, -10362,87, -15997,79, -13744,29, 11066,53, -14866,68, -14536,12, 0,00, 0,00, 0,00
175, -20729,52, -15334,55, -10445,24, -15995,82, -13750,50, 10984,07, -14878,01, -14545,67, 0,00, 0,00, 0,00
176, -20730,28, -15330,10, -10431,47, -15988,52, -13744,80, 10950,16, -14870,08, -14546,78, -0,11, 0,98, 0,18
177, -20740,21, -15337,16, -10321,77, -15989,14, -13733,94, 11051,19, -14853,49, -14534,15, 0,00, 0,00, 0,00
178, -20748,12, -15347,98, -10273,00, -15998,64, -13736,33, 11138,99, -14857,92, -14532,57, 0,00, 0,00, 0,00
179, -20743,58, -15350,37, -10349,17, -16000,41, -13745,12, 11098,11, -14871,67, -14538,74, 0,00, 0,00, 0,00
180, -20737,66, -15347,09, -10448,26, -15994,91, -13747,37, 10992,63, -14880,16, -14549,55, 0,00, 0,00, 0,00
181, -20739,13, -15344,18, -10426,44, -15988,25, -13737,87, 10964,83, -14874,77, -14550,29, 0,00, 0,00, 0,00
182, -20743,29, -15344,56, -10319,04, -15985,39, -13727,68, 11061,86, -14860,13, -14537,60, 0,00, 0,00, 0,00
183, -20742,28, -15347,33, -10282,38, -15987,08, -13732,11, 11124,44, -14865,38, -14539,16, 0,00, 0,00, 0,00
184, -20735,62, -15346,19, -10362,92, -15984,36, -13736,46, 11064,85, -14874,68, -14541,71, 0,00, 0,00, 0,00
185, -20730,84, -15342,57, -10443,92, -15980,09, -13738,12, 10971,55, -14888,74, -14551,86, 0,00, 0,00, 0,00
186, -20733,68, -15339,46, -10419,11, -15976,51, -13733,60, 10944,62, -14887,40, -14562,56, -0,10, 0,98, 0,18
187, -20739,80, -15339,76, -10307,15, -15976,51, -13722,67, 11046,28, -14863,53, -14546,40, 0,00, 0,00, 0,00
188, -20741,23, -15343,35, -10269,82, -15979,57, -13725,96, 11113,38, -14861,81, -14545,42, 0,00, 0,00, 0,00
189, -20738,39, -15345,28, -10347,52, -15981,74, -13736,20, 11058,93, -14872,67, -14557,06, 0,00, 0,00, 0,00
190, -20739,98, -15348,67, -10438,55, -15985,50, -13748,27, 10962,10, -14881,75, -14576,02, 0,00, 0,00, 0,00
191, -20744,59, -15347,33, -10421,95, -15982,66, -13748,74, 10937,22, -14873,23, -14567,50, 0,00, 0,00, 0,00
192, -20747,13, -15346,86, -10315,20, -15979,95, -13746,64, 11045,14, -14866,46, -14542,83, 0,00, 0,00, 0,00
193, -20748,14, -15348,76, -10289,45, -15984,89, -13756,07, 11109,78, -14886,28, -14545,98, 0,00, 0,00, 0,00
194, -20744,29, -15348,83, -10373,29, -15986,62, -13763,06, 11059,58, -14889,93, -14552,55, 0,00, 0,00, 0,00
195, -20746,42, -15349,32, -10449,17, -15989,30, -13762,84, 10989,30, -14875,82, -14553,33, 0,00, 0,00, 0,00
196, -20746,31, -15343,47, -10428,76, -15985,81, -13757,32, 10970,77, -14873,95, -14554,32, -0,10, 0,98, 0,18
197, -20749,48, -15340,25, -10322,59, -15982,93, -13748,02, 11072,56, -14858,92, -14535,70, 0,00, 0,00, 0,00
198, -20747,13, -15339,38, -10289,18, -15982,82, -13752,67, 11143,82, -14868,31, -14529,44, 0,00, 0,00, 0,00
199, -20740,07, -15334,77, -10363,34, -15978,97, -13757,97, 11107,65, -14874,46, -14536,03, 0,00, 0,00, 0,00
200, -20735,40, -15328,56, -10448,72, -15971,75, -13755,78, 11025,47, -14868,18, -14544,12, 0,00, 0,00, 0,00
201, -20731,49, -15319,42, -10435,05, -15959,03, -13743,93, 10994,24, -14856,58, -14543,36, 0,00, 0,00, 0,00
202, -20731,85, -15317,14, -10337,50, -15951,39, -13730,90, 11074,37, -14855,44, -14520,36, 0,00, 0,00, 0,00
203, -20733,28, -15319,64, -10299,73, -15950,34, -13725,89, 11133,54, -14863,84, -14506,15, 0,00, 0,00, 0,00
204, -20738,24, -15328,98, -10371,86, -15959,75, -13732,73, 11092,12, -14867,42, -14515,58, 0,00, 0,00, 0,00
205, -20735,31, -15327,84, -10465,98, -15960,73, -13735,86, 10988,61, -14861,32, -14528,92, -0,10, 0,98, 0,18
206, -20733,34, -15322,32, -10436,74, -15952,37, -13722,61, 10969,10, -14851,73, -14521,12, 0,00, 0,00, 0,00
207, -20734,39, -15321,32, -10323,58, -15948,13, -13707,16, 11072,14, -14837,89, -14503,15, 0,00, 0,00, 0,00
208, -20739,02, -15329,45, -10287,81, -15957,29, -13712,44, 11135,68, -14852,76, -14519,98, 0,00, 0,00, 0,00
209, -20743,13, -15339,26, -10356,32, -15967,97, -13725,92, 11094,04, -14878,01, -14546,54, 0,00, 0,00, 0,00
210, -20737,41, -15336,67, -10448,93, -15967,39, -13733,05, 10991,29, -14890,22, -14563,59, 0,00, 0,00, 0,00
211, -20741,12, -15334,73, -10424,27, -15963,28, -13726,85, 10963,75, -14866,77, -14549,62, 0,00, 0,00, 0,00
212, -20744,70, -15334,66, -10312,69, -15962,23, -13718,38, 11063,38, -14838,79, -14520,97, 0,00, 0,00, 0,00
213, -20750,51, -15343,33, -10282,16, -15972,76, -13729,09, 11125,29, -14846,41, -14526,71, 0,00, 0,00, 0,00
214, -20747,25, -15345,95, -10362,02, -15978,48, -13740,60, 11074,01, -14865,85, -14547,41, 0,00, 0,00, 0,00
215, -20739,56, -15338,97, -10448,90, -15976,67, -13746,37, 10982,46, -14864,67, -14560,75, -0,10, 0,98, 0,18
216, -20741,39, -15338,24, -10427,13, -15972,47, -13746,72, 10958,32, -14867,35, -14564,69, 0,00, 0,00, 0,00
217, -20749,64, -15344,83, -10326,24, -15977,74, -13747,86, 11052,27, -14866,23, -14560,28, 0,00, 0,00, 0,00
218, -20753,64, -15352,90, -10293,45, -15986,12, -13753,27, 11116,21, -14868,47, -14555,77, 0,00, 0,00, 0,00
219, -20757,33, -15362,80, -10358,42, -15996,94, -13766,35, 11088,68, -14883,11, -14563,61, 0,00, 0,00, 0,00
220, -20756,99, -15363,52, -10457,71, -16001,68, -13779,29, 10989,73, -14899,99, -14583,95, 0,00, 0,00, 0,00
221, -20750,40, -15353,35, -10442,20, -15994,75, -13771,29, 10961,34, -14895,96, -14581,54, 0,00, 0,00, 0,00
222, -20752,72, -15350,44, -10341,39, -15990,73, -13761,12, 11051,55, -14881,25, -14560,75, 0,00, 0,00, 0,00
223, -20751,07, -15350,31, -10303,15, -15993,99, -13763,29, 11115,61, -14884,70, -14556,28, 0,00, 0,00, 0,00
224, -20751,98, -15355,74, -10372,35, -15999,58, -13772,23, 11075,74, -14892,99, -14560,13, 0,00, 0,00, 0,00
225, -20746,89, -15351,33, -10465,69, -15994,17, -13775,58, 10973,77, -14900,72, -14565,07, -0,10, 0,98, 0,18
226, -20742,51, -15341,61, -10448,08, -15977,07, -13754,97, 10935,23, -14883,85, -14552,95, 0,00, 0,00, 0,00
227, -20749,59, -15343,38, -10321,86, -15971,42, -13735,86, 11049,38, -14857,76, -14532,10, 0,00, 0,00, 0,00
228, -20750,22, -15346,13, -10275,97, -15972,47, -13734,68, 11132,60, -14860,22, -14534,67, 0,00, 0,00, 0,00
229, -20745,17, -15345,75, -10358,98, -15970,72, -13735,53, 11078,15, -14862,77, -14550,45, 0,00, 0,00, 0,00
230, -20736,76, -15339,13, -10446,56, -15960,84, -13730,94, 10981,59, -14862,81, -14557,42, 0,00, 0,00, 0,00
231, -20733,97, -15331,58, -10427,07, -15953,31, -13720,64, 10949,47, -14857,90, -14550,00, 0,00, 0,00, 0,00
232, -20737,37, -15330,26, -10322,10, -15951,41, -13709,60, 11044,02, -14842,36, -14524,79, 0,00, 0,00, 0,00
233, -20742,33, -15338,42, -10269,55, -15957,87, -13709,93, 11132,93, -14832,06, -14524,36, 0,00, 0,00, 0,00
234, -20739,94, -15342,28, -10348,32, -15962,81, -13721,80, 11084,99, -14851,42, -14533,55, 0,00, 0,00, 0,00
235, -20737,17, -15340,52, -10440,46, -15965,76, -13729,09, 10986,98, -14860,89, -14537,35, -0,09, 0,99, 0,17
236, -20735,40, -15333,43, -10428,36, -15961,36, -13723,55, 10949,92, -14856,22, -14533,53, 0,00, 0,00, 0,00
237, -20740,27, -15333,43, -10325,86, -15962,32, -13719,48, 11042,81, -14851,97, -14513,03, 0,00, 0,00, 0,00
238, -20740,34, -15336,56, -10288,53, -15965,45, -13722,63, 11109,11, -14856,29, -14518,06, 0,00, 0,00, 0,00
239, -20743,89, -15342,15, -10348,34, -15972,15, -13732,93, 11082,78, -14851,46, -14530,13, 0,00, 0,00, 0,00
240, -20744,50, -15341,88, -10446,74, -15975,62, -13749,85, 10984,05, -14869,59, -14550,74, 0,00, 0,00, 0,00
241, -20746,33, -15337,01, -10431,54, -15972,40, -13745,12, 10955,06, -14865,97, -14552,30, 0,00, 0,00, 0,00
242, -20756,19, -15342,77, -10324,45, -15977,00, -13738,57, 11051,15, -14856,15, -14543,05, 0,00, 0,00, 0,00
243, -20765,73, -15355,02, -10279,17, -15986,68, -13741,74, 11132,38, -14856,38, -14543,65, 0,00, 0,00, 0,00
244, -20766,20, -15360,34, -10358,78, -15990,35, -13754,19, 11090,42, -14874,46, -14559,90, 0,00, 0,00, 0,00
245, -20767,34, -15362,26, -10448,55, -15989,10, -13759,08, 10999,74, -14885,93, -14570,92, -0,10, 0,99, 0,17
246, -20770,43, -15361,88, -10433,44, -15983,49, -13753,79, 10969,48, -14886,80, -14566,81, 0,00, 0,00, 0,00
247, -20779,39, -15367,20, -10326,01, -15984,00, -13743,44, 11069,23, -14874,46, -14547,72, 0,00, 0,00, 0,00
248, -20780,24, -15370,00, -10292,46, -15984,72, -13740,76, 11135,06, -14866,59, -14540,10, 0,00, 0,00, 0,00
249, -20777,40, -15373,84, -10373,87, -15984,38, -13746,77, 11078,96, -14876,36, -14543,09, 0,00, 0,00, 0,00
250, -20776,75, -15376,50, -10459,03, -15983,42, -13743,91, 10983,74, -14872,92, -14548,86, 0,00, 0,00, 0,00
251, -20773,51, -15368,59, -10436,25, -15977,90, -13732,29, 10954,46, -14869,45, -14544,28, 0,00, 0,00, 0,00
252, -20781,85, -15372,93, -10328,61, -15981,81, -13719,92, 11048,96, -14858,54, -14531,72, 0,00, 0,00, 0,00
253, -20783,23, -15376,79, -10277,91, -15984,29, -13710,51, 11129,65, -14841,33, -14527,31, 0,00, 0,00, 0,00
254, -20780,28, -15380,01, -10356,93, -15987,13, -13715,75, 11078,71, -14846,94, -14537,89, 0,00, 0,00, 0,00
255, -20774,00, -15373,82, -10443,18, -15984,00, -13716,59, 10983,27, -14852,53, -14548,68, -0,10, 1,00, 0,17
0, -20772,53, -15370,56, -10413,43, -15980,27, -13711,66, 10965,56, -14853,16, -14547,43, 0,00, 0,00, 0,00
1, -20774,96, -15373,04, -10308,33, -15981,65, -13707,36, 11060,36, -14849,43, -14531,07, 0,00, 0,00, 0,00
2, -20774,63, -15377,04, -10266,42, -15986,84, -13710,38, 11140,20, -14848,98, -14524,19, 0,00, 0,00, 0,00
3, -20771,63, -15379,68, -10345,33, -15991,44, -13722,83, 11098,27, -14854,57, -14541,31, 0,00, 0,00, 0,00
4, -20760,48, -15370,56, -10439,45, -15982,66, -13727,73, 11005,01, -14860,71, -14549,62, 0,00, 0,00, 0,00
5, -20754,31, -15359,98, -10433,73, -15973,54, -13725,40, 10959,15, -14856,38, -14551,66, 0,00, 0,00, 0,00
6, -20756,57, -15356,68, -10325,37, -15974,25, -13720,66, 11051,31, -14852,26, -14541,60, 0,00, 0,00, 0,00
7, -20761,02, -15361,53, -10278,72, -15984,07, -13729,04, 11131,41, -14862,12, -14544,86, 0,00, 0,00, 0,00
8, -20753,19, -15358,60, -10357,11, -15985,68, -13738,63, 11085,08, -14865,94, -14556,51, 0,00, 0,00, 0,00
9, -20746,26, -15352,34, -10442,47, -15985,45, -13745,47, 10997,46, -14870,95, -14570,61, -0,10, 0,99, 0,17
10, -20744,23, -15345,32, -10430,13, -15979,91, -13747,04, 10960,98, -14881,88, -14578,61, 0,00, 0,00, 0,00
11, -20746,80, -15344,41, -10323,31, -15978,08, -13738,68, 11057,47, -14869,21, -14563,10, 0,00, 0,00, 0,00
12, -20748,34, -15346,98, -10278,78, -15981,65, -13742,39, 11138,88, -14870,62, -14556,57, 0,00, 0,00, 0,00
13, -20744,18, -15347,85, -10352,88, -15982,14, -13751,53, 11096,90, -14880,92, -14570,59, 0,00, 0,00, 0,00
14, -20735,76, -15342,30, -10450,60, -15973,70, -13754,62, 10990,87, -14883,94, -14565,71, 0,00, 0,00, 0,00
15, -20736,29, -15336,11, -10429,70, -15963,93, -13744,47, 10953,76, -14869,48, -14557,09, 0,00, 0,00, 0,00
16, -20743,96, -15338,26, -10306,97, -15963,19, -13734,81, 11063,04, -14846,54, -14546,31, 0,00, 0,00, 0,00
17, -20744,81, -15340,40, -10282,14, -15965,22, -13740,02, 11112,37, -14857,92, -14556,51, 0,00, 0,00, 0,00
18, -20744,29, -15344,99, -10348,43, -15967,42, -13744,98, 11073,81, -14867,69, -14559,05, 0,00, 0,00, 0,00
19, -20739,56, -15340,27, -10430,71, -15959,84, -13743,24, 10992,27, -14869,63, -14556,39, -0,10, 0,99, 0,17
20, -20742,40, -15337,14, -10416,09, -15949,98, -13734,30, 10965,32, -14865,81, -14548,73, 0,00, 0,00, 0,00
21, -20748,45, -15338,24, -10311,19, -15948,66, -13722,76, 11062,41, -14855,66, -14533,71, 0,00, 0,00, 0,00
22, -20748,47, -15340,27, -10271,07, -15955,05, -13728,02, 11139,75, -14866,73, -14540,52, 0,00, 0,00, 0,00
23, -20741,01, -15336,69, -10358,56, -15954,14, -13729,60, 11079,51, -14869,14, -14545,53, 0,00, 0,00, 0,00
24, -20737,93, -15333,39, -10444,90, -15953,80, -13729,98, 10987,00, -14876,74, -14545,02, 0,00, 0,00, 0,00
25, -20741,90, -15332,71, -10419,71, -15955,61, -13724,51, 10971,08, -14876,11, -14544,26, 0,00, 0,00, 0,00
26, -20749,15, -15335,55, -10317,83, -15957,74, -13713,33, 11066,06, -14850,86, -14536,99, 0,00, 0,00, 0,00
27, -20754,91, -15344,63, -10273,89, -15965,52, -13713,89, 11147,42, -14835,63, -14532,86, 0,00, 0,00, 0,00
28, -20758,96, -15353,50, -10347,11, -15973,14, -13726,50, 11112,71, -14841,42, -14542,02, -0,09, 0,98, 0,17
29, -20759,00, -15355,60, -10440,41, -15976,96, -13738,57, 11021,06, -14854,48, -14553,26, 0,00, 0,00, 0,00
30, -20756,99, -15350,35, -10434,62, -15973,38, -13736,44, 10978,15, -14857,92, -14549,35, 0,00, 0,00, 0,00
31, -20765,78, -15357,35, -10329,99, -15979,35, -13732,29, 11072,67, -14856,33, -14537,93, 0,00, 0,00, 0,00
32, -20767,59, -15365,35, -10299,10, -15987,40, -13740,00, 11128,35, -14869,74, -14547,25, 0,00, 0,00, 0,00
33, -20763,74, -15369,01, -10387,66, -15993,54, -13755,17, 11056,27, -14890,62, -14568,91, 0,00, 0,00, 0,00
34, -20759,12, -15366,04, -10463,68, -15995,47, -13763,33, 10967,02, -14901,64, -14570,92, 0,00, 0,00, 0,00
35, -20758,56, -15361,21, -10439,45, -15993,50, -13756,96, 10943,06, -14880,32, -14568,89, 0,00, 0,00, 0,00
36, -20763,05, -15362,44, -10334,87, -15993,39, -13743,39, 11035,37, -14840,73, -14557,40, 0,00, 0,00, 0,00
37, -20765,93, -15370,83, -10290,59, -16003,49, -13749,21, 11106,69, -14845,27, -14563,48, 0,00, 0,00, 0,00
38, -20758,11, -15369,66, -10371,75, -16005,46, -13758,97, 11051,06, -14865,79, -14584,74, -0,10, 0,98, 0,16
39, -20753,39, -15365,37, -10450,83, -15999,85, -13755,75, 10962,08, -14870,41, -14594,03, 0,00, 0,00, 0,00
40, -20746,98, -15355,96, -10416,78, -15987,69, -13739,39, 10951,21, -14855,46, -14572,87, 0,00, 0,00, 0,00
41, -20746,31, -15352,45, -10312,89, -15980,63, -13726,79, 11039,28, -14846,72, -14560,57, 0,00, 0,00, 0,00
42, -20747,80, -15356,39, -10269,15, -15981,81, -13728,53, 11111,83, -14858,30, -14557,65, 0,00, 0,00, 0,00
43, -20739,80, -15353,95, -10340,36, -15976,62, -13734,81, 11068,49, -14876,69, -14558,00, 0,00, 0,00, 0,00
44, -20732,23, -15347,22, -10423,24, -15970,39, -13736,24, 10981,72, -14882,71, -14561,20, 0,00, 0,00, 0,00
45, -20728,85, -15338,26, -10412,69, -15962,12, -13734,45, 10940,69, -14890,64, -14562,43, 0,00, 0,00, 0,00
46, -20730,21, -15335,44, -10298,61, -15959,75, -13720,48, 11045,58, -14866,84, -14539,34, 0,00, 0,00, 0,00
47, -20725,39, -15333,09, -10248,61, -15962,01, -13719,86, 11134,03, -14855,73, -14536,95, 0,00, 0,00, 0,00
48, -20715,51, -15328,27, -10334,19, -15962,25, -13728,46, 11080,52, -14869,48, -14557,22, -0,09, 0,98, 0,17
49, -20711,15, -15326,05, -10429,84, -15961,33, -13733,67, 10978,82, -14881,03, -14576,29, 0,00, 0,00, 0,00
50, -20716,80, -15327,73, -10401,65, -15962,63, -13726,47, 10962,59, -14868,31, -14565,56, 0,00, 0,00, 0,00
51, -20720,71, -15326,68, -10304,00, -15962,92, -13717,33, 11053,25, -14850,52, -14547,21, 0,00, 0,00, 0,00
52, -20729,81, -15337,41, -10260,66, -15972,85, -13723,01, 11136,44, -14852,87, -14546,34, 0,00, 0,00, 0,00
53, -20732,52, -15344,67, -10349,28, -15981,61, -13741,76, 11083,45, -14879,47, -14570,70, 0,00, 0,00, 0,00
54, -20730,66, -15343,11, -10446,58, -15981,07, -13748,40, 10981,55, -14883,45, -14581,14, 0,00, 0,00, 0,00
55, -20736,76, -15344,32, -10421,90, -15980,27, -13745,38, 10965,45, -14871,75, -14580,91, 0,00, 0,00, 0,00
56, -20743,11, -15346,53, -10318,26, -15980,04, -13738,99, 11066,97, -14864,51, -14569,25, 0,00, 0,00, 0,00
57, -20741,19, -15348,14, -10287,43, -15979,13, -13741,61, 11133,65, -14867,69, -14569,67, 0,00, 0,00, 0,00
58, -20739,54, -15350,91, -10367,99, -15980,74, -13746,41, 11081,48, -14872,72, -14576,06, -0,10, 0,98, 0,17
59, -20738,71, -15351,04, -10458,87, -15978,97, -13752,51, 10981,97, -14873,30, -14576,94, 0,00, 0,00, 0,00
60, -20742,02, -15349,39, -10441,71, -15975,39, -13747,98, 10946,90, -14867,08, -14574,28, 0,00, 0,00, 0,00
61, -20747,43, -15350,64, -10330,22, -15976,67, -13738,66, 11050,79, -14850,81, -14553,31, 0,00, 0,00, 0,00
62, -20746,22, -15352,09, -10288,44, -15979,40, -13745,38, 11122,52, -14860,20, -14554,23, 0,00, 0,00, 0,00
63, -20741,99, -15352,99, -10375,21, -15979,35, -13757,99, 11061,90, -14888,21, -14566,09, 0,00, 0,00, 0,00
64, -20739,15, -15350,86, -10455,79, -15978,52, -13760,14, 10974,75, -14891,11, -14573,38, 0,00, 0,00, 0,00
65, -20737,90, -15345,84, -10435,85, -15974,28, -13752,27, 10941,36, -14877,59, -14576,94, 0,00, 0,00, 0,00
66, -20743,94, -15349,10, -10322,68, -15977,05, -13742,12, 11042,14, -14860,98, -14563,73, 0,00, 0,00, 0,00
67, -20744,41, -15352,27, -10282,83, -15981,63, -13745,09, 11115,66, -14865,38, -14561,80, 0,00, 0,00, 0,00
68, -20740,70, -15353,68, -10354,67, -15984,07, -13752,11, 11075,83, -14876,00, -14567,12, -0,10, 0,98, 0,17
69, -20733,12, -15349,23, -10446,42, -15981,03, -13756,58, 10977,68, -14898,42, -14574,30, 0,00, 0,00, 0,00
70, -20729,41, -15341,14, -10425,39, -15973,41, -13747,48, 10950,99, -14892,21, -14570,05, 0,00, 0,00, 0,00
71, -20733,21, -15340,81, -10314,17, -15974,25, -13736,08, 11053,83, -14868,02, -14557,06, 0,00, 0,00, 0,00
72, -20732,05, -15342,95, -10268,21, -15978,59, -13731,82, 11137,34, -14845,94, -14556,53, 0,00, 0,00, 0,00
73, -20728,85, -15345,10, -10352,63, -15982,66, -13738,30, 11081,91, -14857,03, -14572,38, 0,00, 0,00, 0,00
74, -20725,61, -15340,52, -10438,42, -15981,03, -13739,44, 10990,02, -14859,60, -14580,53, 0,00, 0,00, 0,00
75, -20724,83, -15335,91, -10420,09, -15977,14, -13738,30, 10965,34, -14858,81, -14579,64, 0,00, 0,00, 0,00
76, -20727,82, -15334,66, -10321,45, -15975,62, -13731,97, 11050,55, -14849,51, -14568,29, 0,00, 0,00, 0,00
77, -20734,91, -15342,86, -10276,88, -15985,65, -13735,95, 11128,44, -14855,10, -14577,38, 0,00, 0,00, 0,00
78, -20735,40, -15349,48, -10366,49, -15995,60, -13751,84, 11072,70, -14880,83, -14609,08, -0,11, 0,98, 0,17
