%OpenBCI Raw EEG Data
%
%Sample Rate = 250.0 Hz
%First Column = SampleIndex
%Other Columns = EEG data in microvolts followed by Accel Data (in G) interleaved with Aux Data
0, -24122,18, -21129,64, -8323,68, -19612,85, -11952,55, -118,37, -18868,13, -17198,48, -0,11, 0,97, 0,23
1, -24113,66, -21124,30, -8603,45, -19611,67, -11970,39, -339,88, -18885,21, -17239,59, 0,00, 0,00, 0,00
2, -24106,78, -21108,52, -8642,26, -19595,68, -11955,70, -400,90, -18874,37, -17227,90, 0,00, 0,00, 0,00
3, -24117,82, -21112,21, -8404,26, -19595,42, -11937,71, -227,94, -18861,27, -17193,39, 0,00, 0,00, 0,00
4, -24128,08, -21124,59, -8211,09, -19609,34, -11943,12, -60,48, -18867,08, -17189,47, 0,00, 0,00, 0,00
5, -24122,70, -21128,57, -8344,29, -19619,00, -11972,85, -154,83, -18893,64, -17221,39, 0,00, 0,00, 0,00
6, -24110,51, -21119,22, -8614,41, -19610,28, -11981,74, -361,63, -18893,86, -17241,82, -0,08, 0,97, 0,24
7, -24104,88, -21104,29, -8632,22, -19590,97, -11960,37, -398,80, -18875,96, -17216,47, 0,00, 0,00, 0,00
8, -24105,39, -21098,39, -8385,91, -19580,46, -11934,80, -216,34, -18853,05, -17193,34, 0,00, 0,00, 0,00
9, -24114,65, -21110,48, -8192,12, -19591,33, -11937,11, -42,49, -18853,67, -17170,77, 0,00, 0,00, 0,00
10, -24107,43, -21112,43, -8328,95, -19595,39, -11961,13, -139,23, -18880,32, -17179,51, 0,00, 0,00, 0,00
11, -24099,52, -21106,97, -8594,74, -19589,92, -11970,41, -341,42, -18890,98, -17205,25, 0,00, 0,00, 0,00
12, -24101,97, -21102,21, -8621,31, -19581,40, -11953,27, -385,46, -18868,67, -17198,17, 0,00, 0,00, 0,00
13, -24112,77, -21106,88, -8365,07, -19581,56, -11930,38, -191,80, -18849,47, -17169,07, 0,00, 0,00, 0,00
14, -24121,15, -21119,76, -8197,41, -19593,45, -11934,54, -42,11, -18845,43, -17165,67, 0,00, 0,00, 0,00
15, -24116,68, -21123,61, -8338,30, -19597,32, -11952,95, -139,88, -18853,88, -17190,26, 0,00, 0,00, 0,00
16, -24110,31, -21120,43, -8609,80, -19591,79, -11961,67, -344,64, -18864,36, -17209,75, -0,09, 0,97, 0,24
17, -24115,99, -21117,46, -8628,44, -19585,69, -11940,77, -381,34, -18846,90, -17200,85, 0,00, 0,00, 0,00
18, -24128,13, -21121,88, -8376,12, -19589,98, -11921,64, -191,58, -18833,85, -17180,67, 0,00, 0,00, 0,00
19, -24138,01, -21134,45, -8216,21, -19602,66, -11929,73, -50,05, -18842,79, -17179,37, 0,00, 0,00, 0,00
20, -24133,11, -21137,28, -8334,12, -19613,19, -11952,55, -131,67, -18860,33, -17209,48, 0,00, 0,00, 0,00
21, -24122,11, -21128,59, -8602,02, -19604,60, -11964,29, -339,77, -18865,47, -17236,66, 0,00, 0,00, 0,00
22, -24120,88, -21120,43, -8632,69, -19589,09, -11947,25, -389,28, -18842,79, -17185,90, 0,00, 0,00, 0,00
23, -24130,38, -21125,46, -8379,80, -19592,35, -11932,50, -198,98, -18836,62, -17159,30, 0,00, 0,00, 0,00
24, -24130,05, -21128,86, -8209,50, -19597,83, -11941,93, -49,00, -18857,74, -17170,99, 0,00, 0,00, 0,00
25, -24129,85, -21140,19, -8364,42, -19609,79, -11970,57, -171,15, -18881,79, -17217,57, 0,00, 0,00, 0,00
26, -24123,39, -21137,33, -8628,26, -19610,77, -11986,79, -376,98, -18882,60, -17231,52, -0,09, 0,96, 0,24
27, -24110,63, -21113,26, -8633,96, -19592,91, -11965,72, -405,59, -18855,44, -17215,02, 0,00, 0,00, 0,00
28, -24113,49, -21108,67, -8384,50, -19584,49, -11941,15, -220,37, -18844,51, -17177,45, 0,00, 0,00, 0,00
29, -24122,65, -21120,43, -8204,68, -19591,17, -11941,13, -58,90, -18846,97, -17159,50, 0,00, 0,00, 0,00
30, -24110,29, -21117,86, -8327,61, -19591,04, -11961,07, -141,55, -18863,51, -17187,20, 0,00, 0,00, 0,00
31, -24098,02, -21107,22, -8584,17, -19583,77, -11971,10, -335,41, -18867,96, -17213,57, 0,00, 0,00, 0,00
32, -24095,27, -21098,68, -8610,79, -19573,56, -11955,61, -383,69, -18861,68, -17217,71, 0,00, 0,00, 0,00
33, -24101,93, -21100,25, -8354,81, -19570,25, -11926,20, -191,69, -18831,03, -17172,15, 0,00, 0,00, 0,00
34, -24103,81, -21105,12, -8183,89, -19577,31, -11929,17, -39,20, -18840,17, -17164,26, 0,00, 0,00, 0,00
35, -24089,26, -21099,06, -8336,24, -19575,63, -11949,09, -152,01, -18863,84, -17190,53, 0,00, 0,00, 0,00
36, -24085,95, -21097,63, -8595,41, -19570,79, -11957,20, -347,28, -18873,19, -17208,76, -0,09, 0,97, 0,25
37, -24086,04, -21091,11, -8620,38, -19560,82, -11944,24, -389,41, -18859,42, -17201,81, 0,00, 0,00, 0,00
38, -24093,15, -21091,55, -8366,71, -19557,57, -11921,68, -200,76, -18830,47, -17177,70, 0,00, 0,00, 0,00
39, -24096,10, -21101,05, -8185,70, -19569,78, -11927,74, -39,09, -18838,07, -17189,81, 0,00, 0,00, 0,00
40, -24089,90, -21103,49, -8332,44, -19579,99, -11955,50, -147,10, -18867,60, -17224,39, 0,00, 0,00, 0,00
41, -24081,93, -21100,56, -8600,33, -19575,14, -11966,03, -354,41, -18876,88, -17227,61, 0,00, 0,00, 0,00
42, -24081,59, -21090,26, -8627,73, -19561,96, -11947,66, -406,11, -18862,99, -17211,89, 0,00, 0,00, 0,00
43, -24087,04, -21088,71, -8377,59, -19560,21, -11923,52, -220,59, -18840,15, -17182,39, 0,00, 0,00, 0,00
44, -24096,79, -21101,43, -8190,62, -19573,56, -11925,57, -50,98, -18842,12, -17182,46, 0,00, 0,00, 0,00
45, -24089,32, -21102,24, -8323,63, -19580,15, -11951,21, -145,51, -18870,21, -17222,26, 0,00, 0,00, 0,00
46, -24082,37, -21097,90, -8584,95, -19577,60, -11962,68, -346,21, -18879,82, -17238,34, -0,09, 0,97, 0,25
47, -24083,13, -21091,08, -8610,76, -19569,18, -11944,91, -389,48, -18850,39, -17234,20, 0,00, 0,00, 0,00
48, -24093,23, -21093,77, -8367,00, -19571,23, -11926,53, -208,43, -18832,21, -17199,73, 0,00, 0,00, 0,00
49, -24102,04, -21104,54, -8188,23, -19583,68, -11933,42, -47,27, -18842,05, -17157,69, 0,00, 0,00, 0,00
50, -24094,06, -21106,21, -8332,17, -19594,59, -11964,04, -153,20, -18879,89, -17213,88, 0,00, 0,00, 0,00
51, -24083,15, -21098,19, -8598,96, -19586,77, -11976,11, -357,49, -18890,17, -17223,29, 0,00, 0,00, 0,00
52, -24085,03, -21094,17, -8628,20, -19574,99, -11960,31, -403,76, -18871,33, -17196,34, 0,00, 0,00, 0,00
53, -24089,17, -21092,76, -8381,19, -19568,19, -11930,20, -220,81, -18832,73, -17163,84, 0,00, 0,00, 0,00
54, -24095,72, -21101,97, -8186,75, -19582,59, -11928,01, -45,37, -18829,60, -17150,52, 0,00, 0,00, 0,00
55, -24087,78, -21103,80, -8323,25, -19590,23, -11951,57, -138,47, -18851,42, -17177,31, 0,00, 0,00, 0,00
56, -24074,95, -21092,16, -8588,88, -19583,44, -11962,36, -341,11, -18864,29, -17206,95, -0,09, 0,96, 0,26
57, -24080,03, -21089,76, -8613,98, -19579,03, -11950,87, -381,86, -18860,20, -17194,73, 0,00, 0,00, 0,00
58, -24088,29, -21095,26, -8365,12, -19575,46, -11929,95, -188,85, -18843,46, -17157,60, 0,00, 0,00, 0,00
59, -24092,01, -21102,46, -8191,11, -19584,73, -11931,41, -29,17, -18847,37, -17164,73, 0,00, 0,00, 0,00
60, -24090,02, -21107,67, -8333,24, -19591,62, -11953,91, -127,40, -18869,05, -17186,41, 0,00, 0,00, 0,00
61, -24080,38, -21099,53, -8595,56, -19586,19, -11960,11, -324,26, -18870,95, -17197,90, 0,00, 0,00, 0,00
62, -24085,32, -21095,55, -8608,44, -19585,47, -11948,79, -357,07, -18864,47, -17206,62, 0,00, 0,00, 0,00
63, -24098,04, -21102,10, -8362,10, -19586,43, -11930,80, -172,69, -18852,27, -17188,92, 0,00, 0,00, 0,00
64, -24100,88, -21106,91, -8197,03, -19592,51, -11933,84, -23,74, -18857,59, -17168,20, 0,00, 0,00, 0,00
65, -24092,30, -21105,37, -8326,18, -19599,82, -11953,76, -117,26, -18871,94, -17187,82, 0,00, 0,00, 0,00
66, -24086,42, -21101,54, -8596,50, -19602,50, -11969,05, -327,30, -18884,85, -17211,04, -0,09, 0,96, 0,26
67, -24093,19, -21098,68, -8626,52, -19598,72, -11960,64, -380,78, -18883,80, -17218,76, 0,00, 0,00, 0,00
68, -24093,55, -21091,71, -8367,53, -19589,09, -11924,19, -190,30, -18841,31, -17188,11, 0,00, 0,00, 0,00
69, -24100,03, -21100,22, -8186,75, -19598,72, -11927,18, -29,82, -18840,08, -17175,01, 0,00, 0,00, 0,00
70, -24092,81, -21102,48, -8332,64, -19606,66, -11956,15, -136,30, -18870,97, -17188,98, 0,00, 0,00, 0,00
71, -24078,62, -21088,40, -8599,32, -19596,49, -11967,41, -340,82, -18878,82, -17203,71, 0,00, 0,00, 0,00
72, -24081,52, -21084,04, -8622,57, -19589,27, -11956,53, -384,87, -18871,96, -17212,23, 0,00, 0,00, 0,00
73, -24087,33, -21083,48, -8379,60, -19586,01, -11935,63, -204,27, -18847,13, -17191,55, 0,00, 0,00, 0,00
74, -24092,65, -21091,31, -8200,68, -19593,87, -11936,21, -39,72, -18843,35, -17165,11, 0,00, 0,00, 0,00
75, -24081,05, -21087,84, -8343,59, -19594,30, -11958,92, -138,83, -18865,99, -17188,13, 0,00, 0,00, 0,00
76, -24068,98, -21079,28, -8615,10, -19586,99, -11970,12, -345,25, -18875,96, -17223,58, -0,09, 0,96, 0,26
77, -24069,03, -21072,44, -8632,94, -19576,37, -11956,71, -381,23, -18865,81, -17210,44, 0,00, 0,00, 0,00
78, -24077,50, -21075,39, -8367,98, -19572,66, -11934,27, -177,00, -18848,96, -17152,10, 0,00, 0,00, 0,00
79, -24076,20, -21076,60, -8189,03, -19574,00, -11932,97, -13,66, -18853,45, -17140,88, 0,00, 0,00, 0,00
80, -24071,49, -21082,12, -8331,90, -19580,53, -11953,20, -114,15, -18860,63, -17171,03, 0,00, 0,00, 0,00
81, -24068,38, -21082,43, -8594,07, -19581,58, -11967,03, -311,61, -18870,71, -17201,21, 0,00, 0,00, 0,00
82, -24069,43, -21078,03, -8622,16, -19571,50, -11948,48, -355,06, -18859,17, -17183,51, 0,00, 0,00, 0,00
83, -24078,51, -21080,31, -8381,23, -19570,00, -11926,64, -174,95, -18843,28, -17156,62, 0,00, 0,00, 0,00
84, -24082,26, -21085,94, -8204,83, -19573,96, -11923,94, -15,07, -18841,76, -17146,38, 0,00, 0,00, 0,00
85, -24079,51, -21091,62, -8346,50, -19579,77, -11948,88, -115,42, -18877,17, -17177,45, -0,09, 0,96, 0,26
86, -24069,27, -21084,82, -8606,29, -19572,01, -11960,02, -313,39, -18888,77, -17203,60, 0,00, 0,00, 0,00
87, -24068,11, -21077,09, -8623,03, -19564,26, -11945,38, -352,08, -18863,24, -17203,42, 0,00, 0,00, 0,00
88, -24074,21, -21077,16, -8370,75, -19561,96, -11922,22, -166,41, -18838,14, -17166,90, 0,00, 0,00, 0,00
89, -24080,52, -21085,41, -8190,62, -19571,14, -11928,21, -9,99, -18841,96, -17157,71, 0,00, 0,00, 0,00
90, -24075,24, -21088,89, -8320,10, -19581,92, -11957,27, -101,19, -18869,72, -17181,76, 0,00, 0,00, 0,00
91, -24067,17, -21083,55, -8587,92, -19585,36, -11978,46, -309,17, -18896,50, -17213,50, 0,00, 0,00, 0,00
92, -24067,17, -21073,94, -8605,40, -19577,98, -11963,35, -348,89, -18884,47, -17207,98, 0,00, 0,00, 0,00
93, -24075,31, -21072,93, -8353,81, -19569,55, -11936,86, -157,24, -18868,96, -17169,07, 0,00, 0,00, 0,00
94, -24080,52, -21081,85, -8165,25, -19572,24, -11930,56, 16,27, -18847,66, -17157,11, 0,00, 0,00, 0,00
95, -24069,74, -21078,72, -8303,23, -19578,34, -11954,58, -79,73, -18864,18, -17190,70, -0,09, 0,96, 0,26
96, -24056,24, -21067,59, -8569,75, -19577,58, -11970,43, -282,10, -18876,52, -17228,99, 0,00, 0,00, 0,00
97, -24060,18, -21064,57, -8607,19, -19570,34, -11960,35, -334,99, -18879,18, -17218,87, 0,00, 0,00, 0,00
98, -24066,48, -21061,24, -8349,67, -19565,98, -11932,72, -138,65, -18857,96, -17162,00, 0,00, 0,00, 0,00
99, -24063,84, -21062,09, -8185,32, -19568,82, -11927,61, 9,79, -18841,11, -17148,12, 0,00, 0,00, 0,00
100, -24062,84, -21069,00, -8324,88, -19574,45, -11950,38, -86,05, -18877,61, -17163,61, 0,00, 0,00, 0,00
101, -24052,51, -21063,93, -8586,33, -19568,33, -11965,16, -282,06, -18907,70, -17185,72, 0,00, 0,00, 0,00
102, -24051,39, -21056,39, -8609,94, -19557,48, -11944,44, -323,36, -18861,68, -17168,11, 0,00, 0,00, 0,00
103, -24056,00, -21055,95, -8358,68, -19553,80, -11915,87, -132,41, -18816,53, -17137,26, 0,00, 0,00, 0,00
104, -24061,99, -21066,27, -8172,76, -19563,97, -11915,58, 31,67, -18814,00, -17135,94, 0,00, 0,00, 0,00
105, -24054,43, -21071,66, -8340,49, -19570,09, -11947,83, -98,37, -18846,99, -17180,27, -0,09, 0,96, 0,25
106, -24045,00, -21063,48, -8602,74, -19562,18, -11956,77, -303,56, -18858,21, -17199,26, 0,00, 0,00, 0,00
107, -24047,48, -21059,12, -8597,42, -19557,93, -11943,79, -323,65, -18851,33, -17191,02, 0,00, 0,00, 0,00
108, -24054,10, -21061,02, -8361,38, -19556,68, -11928,08, -154,65, -18842,70, -17167,77, 0,00, 0,00, 0,00
109, -24065,52, -21073,49, -8185,19, -19571,32, -11934,40, -0,11, -18855,21, -17168,60, 0,00, 0,00, 0,00
110, -24054,92, -21069,45, -8321,69, -19573,62, -11952,75, -100,52, -18868,25, -17186,43, 0,00, 0,00, 0,00
111, -24049,11, -21064,24, -8582,62, -19571,83, -11965,74, -304,97, -18872,96, -17207,40, 0,00, 0,00, 0,00
112, -24049,11, -21055,37, -8607,17, -19562,80, -11955,25, -356,29, -18864,74, -17206,06, 0,00, 0,00, 0,00
113, -24057,99, -21055,57, -8349,96, -19558,45, -11932,84, -165,89, -18849,94, -17161,29, 0,00, 0,00, 0,00
114, -24063,39, -21065,13, -8166,54, -19571,16, -11938,04, -7,09, -18855,48, -17162,25, 0,00, 0,00, 0,00
115, -24055,55, -21067,05, -8308,23, -19582,65, -11964,82, -112,52, -18875,06, -17197,01, -0,09, 0,97, 0,25
116, -24043,53, -21055,77, -8580,61, -19572,51, -11976,02, -322,16, -18881,86, -17216,95, 0,00, 0,00, 0,00
117, -24042,18, -21047,34, -8606,14, -19556,66, -11958,00, -366,50, -18864,29, -17209,03, 0,00, 0,00, 0,00
118, -24047,30, -21046,58, -8344,42, -19550,56, -11929,62, -165,54, -18838,52, -17167,10, 0,00, 0,00, 0,00
119, -24057,92, -21059,32, -8167,10, -19560,41, -11934,54, -2,68, -18844,35, -17151,63, 0,00, 0,00, 0,00
120, -24058,34, -21062,38, -8305,37, -19570,23, -11959,26, -98,62, -18863,55, -17185,72, 0,00, 0,00, 0,00
121, -24056,27, -21064,30, -8578,80, -19569,53, -11973,11, -304,36, -18880,41, -17212,09, 0,00, 0,00, 0,00
122, -24056,44, -21056,93, -8598,25, -19552,61, -11947,03, -337,20, -18852,47, -17172,33, 0,00, 0,00, 0,00
123, -24071,73, -21062,36, -8341,40, -19550,06, -11920,48, -137,35, -18823,30, -17124,90, 0,00, 0,00, 0,00
124, -24080,85, -21075,37, -8179,96, -19558,49, -11923,45, 10,15, -18827,34, -17129,13, 0,00, 0,00, 0,00
125, -24080,47, -21084,13, -8320,08, -19568,24, -11944,82, -86,77, -18846,81, -17159,81, -0,09, 0,97, 0,25
126, -24078,21, -21085,90, -8584,68, -19568,15, -11958,36, -283,69, -18858,28, -17185,94, 0,00, 0,00, 0,00
127, -24072,43, -21074,72, -8605,87, -19556,32, -11940,93, -322,92, -18846,57, -17183,06, 0,00, 0,00, 0,00
128, -24082,06, -21076,04, -8340,87, -19553,44, -11915,65, -122,64, -18820,93, -17154,94, 0,00, 0,00, 0,00
129, -24087,04, -21087,10, -8171,37, -19560,95, -11924,57, 30,04, -18826,02, -17138,96, 0,00, 0,00, 0,00
130, -24081,12, -21089,18, -8320,66, -19570,47, -11949,20, -81,11, -18851,71, -17171,50, 0,00, 0,00, 0,00
131, -24072,25, -21082,81, -8574,13, -19571,05, -11965,02, -276,36, -18863,96, -17204,38, 0,00, 0,00, 0,00
132, -24074,86, -21077,54, -8591,59, -19564,46, -11956,06, -316,28, -18852,94, -17195,89, 0,00, 0,00, 0,00
133, -24088,52, -21086,17, -8353,83, -19568,08, -11946,92, -144,26, -18861,23, -17170,61, 0,00, 0,00, 0,00
134, -24091,36, -21092,94, -8180,94, -19575,10, -11950,83, 5,72, -18879,56, -17158,14, 0,00, 0,00, 0,00
135, -24085,84, -21099,46, -8326,78, -19584,42, -11971,08, -102,80, -18872,56, -17198,24, -0,09, 0,97, 0,25
136, -24074,26, -21090,12, -8611,10, -19577,36, -11985,45, -324,52, -18879,82, -17236,19, 0,00, 0,00, 0,00
137, -24073,68, -21081,09, -8620,26, -19565,91, -11964,44, -357,45, -18855,13, -17206,62, 0,00, 0,00, 0,00
138, -24087,67, -21085,67, -8357,00, -19562,20, -11939,23, -159,17, -18829,42, -17167,28, 0,00, 0,00, 0,00
139, -24093,28, -21094,99, -8192,90, -19571,34, -11944,93, -8,52, -18835,61, -17152,93, 0,00, 0,00, 0,00
140, -24080,23, -21092,25, -8335,10, -19573,67, -11960,06, -106,04, -18850,86, -17173,11, 0,00, 0,00, 0,00
141, -24073,68, -21091,04, -8599,97, -19569,35, -11969,87, -305,91, -18859,24, -17203,38, 0,00, 0,00, 0,00
142, -24078,59, -21088,40, -8610,20, -19566,83, -11955,59, -333,06, -18845,40, -17188,04, 0,00, 0,00, 0,00
143, -24091,31, -21091,64, -8346,05, -19570,05, -11937,26, -128,10, -18837,29, -17154,99, 0,00, 0,00, 0,00
144, -24093,77, -21099,22, -8185,97, -19580,40, -11940,35, 19,62, -18839,05, -17156,06, 0,00, 0,00, 0,00
145, -24086,91, -21102,53, -8318,54, -19584,42, -11955,59, -67,68, -18847,84, -17175,79, -0,09, 0,97, 0,25
146, -24075,53, -21093,18, -8577,03, -19574,85, -11962,38, -258,88, -18852,89, -17181,81, 0,00, 0,00, 0,00
147, -24070,59, -21080,60, -8601,49, -19562,71, -11941,11, -302,66, -18843,82, -17181,90, 0,00, 0,00, 0,00
148, -24084,43, -21088,85, -8343,71, -19563,88, -11919,09, -105,52, -18835,05, -17153,00, 0,00, 0,00, 0,00
149, -24089,79, -21101,23, -8174,77, -19570,05, -11921,46, 46,00, -18841,78, -17146,56, 0,00, 0,00, 0,00
150, -24075,67, -21096,27, -8329,51, -19568,35, -11931,79, -70,99, -18826,36, -17179,35, 0,00, 0,00, 0,00
151, -24065,38, -21087,78, -8585,89, -19563,86, -11937,98, -267,53, -18830,70, -17190,88, 0,00, 0,00, 0,00
152, -24068,36, -21082,99, -8601,20, -19556,46, -11927,83, -307,09, -18825,67, -17181,81, 0,00, 0,00, 0,00
153, -24075,71, -21085,12, -8357,07, -19560,21, -11918,08, -127,23, -18827,52, -17165,83, 0,00, 0,00, 0,00
154, -24074,95, -21086,66, -8186,71, -19567,05, -11922,38, 22,11, -18821,98, -17163,61, 0,00, 0,00, 0,00
155, -24068,89, -21091,13, -8335,30, -19576,10, -11951,72, -85,20, -18852,60, -17180,94, -0,10, 0,96, 0,25
156, -24062,61, -21087,53, -8609,00, -19577,04, -11972,64, -300,32, -18874,91, -17225,17, 0,00, 0,00, 0,00
157, -24054,12, -21072,51, -8626,52, -19561,89, -11954,83, -341,58, -18858,84, -17209,99, 0,00, 0,00, 0,00
158, -24059,30, -21070,83, -8357,74, -19555,74, -11925,44, -133,46, -18832,08, -17159,03, 0,00, 0,00, 0,00
159, -24065,03, -21081,76, -8191,78, -19565,11, -11930,27, 13,84, -18842,25, -17158,21, 0,00, 0,00, 0,00
160, -24066,55, -21090,64, -8329,40, -19575,12, -11957,87, -85,65, -18868,47, -17193,65, 0,00, 0,00, 0,00
161, -24056,20, -21084,00, -8594,22, -19569,80, -11971,48, -288,72, -18884,23, -17210,60, 0,00, 0,00, 0,00
162, -24050,68, -21072,75, -8612,37, -19553,28, -11946,29, -326,85, -18850,99, -17194,17, 0,00, 0,00, 0,00
163, -24061,03, -21076,62, -8361,54, -19552,68, -11923,54, -135,70, -18825,76, -17160,53, 0,00, 0,00, 0,00
164, -24065,21, -21083,01, -8178,41, -19555,00, -11925,15, 31,87, -18826,09, -17153,46, -0,10, 0,96, 0,25
165, -24064,36, -21091,69, -8318,96, -19564,86, -11952,01, -63,95, -18852,33, -17179,46, 0,00, 0,00, 0,00
166, -24056,04, -21086,26, -8578,51, -19558,51, -11960,31, -256,06, -18863,44, -17187,42, 0,00, 0,00, 0,00
167, -24053,47, -21077,52, -8595,05, -19542,62, -11938,02, -291,94, -18842,72, -17166,18, 0,00, 0,00, 0,00
168, -24060,74, -21078,41, -8339,91, -19537,30, -11910,06, -100,90, -18821,13, -17139,34, 0,00, 0,00, 0,00
169, -24063,78, -21083,88, -8163,24, -19547,36, -11906,80, 55,57, -18812,55, -17131,05, 0,00, 0,00, 0,00
170, -24052,51, -21081,09, -8319,90, -19552,05, -11923,58, -62,63, -18823,99, -17151,48, 0,00, 0,00, 0,00
171, -24046,41, -21078,28, -8583,34, -19551,34, -11932,68, -267,35, -18830,61, -17176,67, 0,00, 0,00, 0,00
172, -24050,61, -21075,26, -8602,92, -19546,35, -11919,07, -310,18, -18815,83, -17177,92, 0,00, 0,00, 0,00
173, -24062,03, -21079,48, -8346,16, -19549,64, -11898,44, -119,58, -18792,81, -17161,63, 0,00, 0,00, 0,00
174, -24065,54, -21084,58, -8172,62, -19559,16, -11904,47, 32,72, -18801,93, -17146,16, -0,10, 0,97, 0,25
175, -24060,76, -21087,06, -8317,64, -19572,01, -11936,86, -76,69, -18835,03, -17189,41, 0,00, 0,00, 0,00
176, -24056,94, -21086,30, -8575,76, -19573,11, -11953,98, -276,42, -18849,09, -17205,90, 0,00, 0,00, 0,00
177, -24051,79, -21074,23, -8592,39, -19558,13, -11942,22, -318,11, -18840,24, -17212,88, 0,00, 0,00, 0,00
178, -24049,11, -21060,35, -8347,97, -19547,65, -11921,68, -135,59, -18824,79, -17170,21, 0,00, 0,00, 0,00
179, -24050,92, -21063,54, -8180,16, -19557,02, -11933,57, 16,74, -18845,63, -17157,87, 0,00, 0,00, 0,00
180, -24036,19, -21059,19, -8329,65, -19557,15, -11954,92, -91,55, -18855,08, -17181,88, 0,00, 0,00, 0,00
181, -24025,46, -21052,91, -8590,85, -19547,94, -11963,79, -293,23, -18855,62, -17191,96, 0,00, 0,00, 0,00
182, -24027,54, -21046,49, -8597,87, -19536,23, -11946,67, -322,33, -18828,24, -17178,37, 0,00, 0,00, 0,00
183, -24033,67, -21046,18, -8341,85, -19531,83, -11922,44, -130,33, -18797,26, -17148,39, 0,00, 0,00, 0,00
184, -24046,92, -21064,08, -8164,11, -19552,72, -11934,83, 31,02, -18812,93, -17148,04, -0,08, 0,96, 0,25
185, -24034,52, -21061,36, -8312,52, -19559,54, -11958,29, -74,99, -18841,38, -17187,11, 0,00, 0,00, 0,00
186, -24026,65, -21053,33, -8576,01, -19548,03, -11962,54, -276,63, -18850,81, -17212,83, 0,00, 0,00, 0,00
187, -24022,47, -21039,74, -8595,50, -19526,35, -11941,06, -315,20, -18838,38, -17191,71, 0,00, 0,00, 0,00
188, -24029,85, -21038,65, -8340,49, -19521,43, -11910,84, -122,53, -18803,65, -17147,61, 0,00, 0,00, 0,00
189, -24037,31, -21048,79, -8156,84, -19533,70, -11913,86, 41,93, -18804,23, -17151,41, 0,00, 0,00, 0,00
190, -24031,79, -21052,53, -8301,91, -19543,74, -11939,50, -63,34, -18825,18, -17178,50, 0,00, 0,00, 0,00
191, -24017,66, -21040,50, -8575,83, -19536,50, -11948,59, -275,60, -18835,79, -17192,38, 0,00, 0,00, 0,00
192, -24019,85, -21032,68, -8587,18, -19525,25, -11930,56, -313,24, -18821,82, -17181,76, 0,00, 0,00, 0,00
193, -24026,43, -21030,31, -8324,15, -19516,67, -11903,40, -115,04, -18793,28, -17139,92, 0,00, 0,00, 0,00
194, -24032,80, -21039,50, -8155,37, -19534,82, -11914,84, 30,49, -18808,19, -17160,98, -0,09, 0,96, 0,25
195, -24031,23, -21047,23, -8309,24, -19548,14, -11943,97, -87,17, -18838,74, -17185,12, 0,00, 0,00, 0,00
196, -24023,56, -21041,51, -8556,67, -19540,54, -11953,49, -274,08, -18847,64, -17190,48, 0,00, 0,00, 0,00
197, -24020,55, -21030,17, -8569,57, -19526,26, -11938,16, -309,86, -18832,98, -17188,24, 0,00, 0,00, 0,00
198, -24028,35, -21032,68, -8318,51, -19525,28, -11915,07, -121,86, -18802,13, -17165,87, 0,00, 0,00, 0,00
199, -24028,21, -21036,99, -8166,70, -19533,57, -11923,52, 14,93, -18815,99, -17159,48, 0,00, 0,00, 0,00
200, -24022,22, -21038,62, -8301,15, -19541,71, -11944,86, -77,83, -18836,53, -17173,18, 0,00, 0,00, 0,00
201, -24014,18, -21034,13, -8569,90, -19539,25, -11961,67, -284,90, -18851,59, -17192,89, 0,00, 0,00, 0,00
202, -24014,13, -21025,08, -8589,64, -19530,44, -11953,02, -328,91, -18849,34, -17195,08, 0,00, 0,00, 0,00
203, -24017,71, -21021,21, -8336,91, -19526,35, -11929,10, -141,96, -18821,42, -17176,04, 0,00, 0,00, 0,00
204, -24010,20, -21018,33, -8161,52, -19527,40, -11923,07, 15,09, -18804,39, -17144,88, -0,09, 0,97, 0,25
205, -24004,86, -21020,05, -8309,69, -19537,30, -11949,51, -92,45, -18834,34, -17159,59, 0,00, 0,00, 0,00
206, -23993,32, -21011,87, -8569,05, -19533,12, -11961,58, -289,97, -18846,25, -17184,06, 0,00, 0,00, 0,00
207, -23994,53, -21004,52, -8591,65, -19525,46, -11950,94, -332,17, -18840,22, -17188,92, 0,00, 0,00, 0,00
208, -24002,69, -21004,07, -8337,67, -19521,05, -11925,86, -136,95, -18819,03, -17147,99, 0,00, 0,00, 0,00
209, -24013,98, -21017,17, -8176,69, -19536,38, -11933,62, 7,11, -18835,05, -17149,17, 0,00, 0,00, 0,00
210, -23999,56, -21011,89, -8317,67, -19537,66, -11945,71, -96,81, -18832,89, -17170,92, 0,00, 0,00, 0,00
211, -23997,41, -21013,03, -8573,88, -19542,53, -11953,94, -296,23, -18823,61, -17194,68, 0,00, 0,00, 0,00
212, -23998,13, -21003,87, -8581,84, -19538,64, -11939,21, -330,78, -18812,57, -17181,76, 0,00, 0,00, 0,00
213, -24007,81, -21006,77, -8326,18, -19542,15, -11921,73, -136,08, -18799,36, -17141,64, 0,00, 0,00, 0,00
214, -24001,46, -21005,59, -8176,22, -19546,31, -11925,13, -2,53, -18812,77, -17135,54, -0,09, 0,97, 0,25
215, -24003,13, -21014,73, -8320,77, -19558,11, -11950,43, -110,73, -18840,69, -17174,59, 0,00, 0,00, 0,00
216, -23996,68, -21011,51, -8560,43, -19556,48, -11957,94, -292,96, -18842,52, -17196,25, 0,00, 0,00, 0,00
217, -23989,99, -20996,54, -8589,53, -19540,88, -11939,97, -344,37, -18826,36, -17178,41, 0,00, 0,00, 0,00
218, -24000,27, -20999,33, -8334,79, -19540,83, -11916,76, -152,95, -18813,60, -17146,96, 0,00, 0,00, 0,00
219, -24008,05, -21010,82, -8158,63, -19556,03, -11925,71, 3,67, -18825,13, -17150,52, 0,00, 0,00, 0,00
220, -24003,13, -21014,77, -8312,43, -19560,44, -11951,39, -107,29, -18843,77, -17166,97, 0,00, 0,00, 0,00
221, -24004,68, -21020,05, -8575,47, -19565,76, -11971,01, -308,45, -18858,19, -17183,08, 0,00, 0,00, 0,00
222, -24002,40, -21011,49, -8583,52, -19553,28, -11951,30, -339,05, -18838,61, -17182,61, 0,00, 0,00, 0,00
223, -24017,22, -21019,36, -8333,18, -19555,70, -11934,00, -149,67, -18824,10, -17167,41, 0,00, 0,00, 0,00
224, -24023,36, -21028,28, -8168,29, -19566,40, -11941,24, 2,28, -18841,49, -17159,30, -0,08, 0,97, 0,25
225, -24007,87, -21022,66, -8325,94, -19561,04, -11957,96, -110,57, -18859,26, -17173,58, 0,00, 0,00, 0,00
226, -24006,49, -21022,51, -8572,43, -19553,13, -11957,78, -292,61, -18842,21, -17173,16, 0,00, 0,00, 0,00
227, -24012,61, -21019,80, -8574,82, -19547,70, -11945,91, -311,49, -18821,33, -17166,16, 0,00, 0,00, 0,00
228, -24014,78, -21016,47, -8336,13, -19542,17, -11928,79, -133,71, -18810,15, -17148,01, 0,00, 0,00, 0,00
229, -24025,78, -21031,22, -8163,21, -19551,94, -11932,17, 23,31, -18821,49, -17137,44, 0,00, 0,00, 0,00
230, -24022,18, -21037,26, -8310,02, -19558,54, -11955,14, -80,96, -18841,76, -17169,38, 0,00, 0,00, 0,00
231, -24005,44, -21023,94, -8573,95, -19544,74, -11961,00, -283,17, -18837,83, -17192,11, 0,00, 0,00, 0,00
232, -24009,97, -21021,52, -8592,75, -19538,96, -11949,96, -323,99, -18832,13, -17194,91, 0,00, 0,00, 0,00
233, -24017,78, -21021,08, -8345,74, -19535,89, -11927,38, -139,36, -18815,74, -17160,66, -0,08, 0,98, 0,25
234, -24023,34, -21027,27, -8175,75, -19544,74, -11930,76, 13,59, -18825,33, -17133,26, 0,00, 0,00, 0,00
235, -24021,15, -21031,00, -8318,67, -19555,52, -11956,06, -87,86, -18845,18, -17156,66, 0,00, 0,00, 0,00
236, -24011,47, -21022,75, -8575,60, -19553,86, -11970,48, -286,30, -18854,21, -17204,27, 0,00, 0,00, 0,00
237, -24010,27, -21013,34, -8587,85, -19542,96, -11954,81, -321,40, -18840,15, -17185,41, 0,00, 0,00, 0,00
238, -24019,90, -21016,36, -8323,75, -19541,21, -11928,08, -117,75, -18821,98, -17125,73, 0,00, 0,00, 0,00
239, -24020,66, -21021,50, -8157,07, -19547,79, -11930,22, 32,50, -18826,00, -17130,00, 0,00, 0,00, 0,00
240, -24007,36, -21019,22, -8316,32, -19547,99, -11950,16, -81,49, -18839,97, -17160,42, 0,00, 0,00, 0,00
241, -23995,80, -21010,75, -8580,52, -19541,53, -11956,80, -280,98, -18835,30, -17177,34, 0,00, 0,00, 0,00
242, -24004,10, -21010,95, -8578,84, -19539,43, -11943,90, -298,24, -18823,01, -17166,07, 0,00, 0,00, 0,00
243, -24015,21, -21014,80, -8317,35, -19540,03, -11928,05, -94,79, -18812,75, -17137,53, -0,08, 0,97, 0,25
244, -24011,34, -21015,53, -8166,75, -19543,00, -11933,80, 41,31, -18822,92, -17133,15, 0,00, 0,00, 0,00
245, -23994,69, -21009,23, -8330,29, -19537,84, -11952,93, -78,25, -18834,27, -17149,64, 0,00, 0,00, 0,00
246, -23988,88, -21006,55, -8587,07, -19539,02, -11966,25, -271,46, -18841,20, -17179,24, 0,00, 0,00, 0,00
247, -23991,85, -21001,38, -8589,28, -19537,30, -11954,52, -295,13, -18830,27, -17180,02, 0,00, 0,00, 0,00
248, -24002,64, -21004,38, -8325,98, -19540,01, -11937,44, -94,01, -18819,83, -17147,36, 0,00, 0,00, 0,00
249, -24010,53, -21014,44, -8170,64, -19553,62, -11946,14, 42,87, -18831,05, -17150,36, 0,00, 0,00, 0,00
250, -23997,03, -21008,20, -8318,09, -19558,80, -11968,15, -65,31, -18848,00, -17175,17, 0,00, 0,00, 0,00
251, -23985,41, -20996,76, -8576,39, -19555,18, -11979,62, -265,99, -18852,89, -17197,30, 0,00, 0,00, 0,00
252, -23986,24, -20989,45, -8582,87, -19546,35, -11964,31, -296,21, -18842,16, -17191,02, 0,00, 0,00, 0,00
253, -23994,28, -20989,61, -8333,49, -19541,95, -11941,49, -111,74, -18823,45, -17161,58, -0,08, 0,97, 0,25
254, -24002,69, -21001,56, -8156,62, -19555,25, -11949,13, 41,02, -18840,78, -17145,26, 0,00, 0,00, 0,00
255, -23999,60, -21005,61, -8294,08, -19565,78, -11970,70, -58,43, -18849,16, -17177,29, 0,00, 0,00, 0,00
0, -23980,38, -20988,85, -8564,38, -19554,87, -11979,01, -270,32, -18847,97, -17211,00, 0,00, 0,00, 0,00
1, -23977,90, -20978,59, -8574,62, -19542,49, -11959,55, -305,55, -18824,28, -17199,58, 0,00, 0,00, 0,00
2, -23985,63, -20979,37, -8321,96, -19536,97, -11938,11, -116,77, -18817,02, -17142,71, 0,00, 0,00, 0,00
3, -24000,05, -20994,23, -8155,28, -19552,57, -11946,27, 28,70, -18825,73, -17149,80, 0,00, 0,00, 0,00
4, -23995,20, -20999,93, -8309,73, -19560,66, -11969,92, -87,19, -18848,15, -17188,31, 0,00, 0,00, 0,00
5, -23978,37, -20989,56, -8565,66, -19548,25, -11969,29, -283,06, -18862,10, -17187,75, 0,00, 0,00, 0,00
6, -23985,46, -20989,16, -8570,24, -19538,26, -11949,44, -311,09, -18833,45, -17190,86, 0,00, 0,00, 0,00
7, -23992,16, -20988,98, -8299,69, -19530,42, -11920,54, -102,39, -18796,23, -17143,70, -0,08, 0,97, 0,26
8, -23995,78, -20996,60, -8150,14, -19536,36, -11927,52, 34,51, -18808,81, -17130,29, 0,00, 0,00, 0,00
9, -23995,13, -21005,65, -8307,83, -19542,06, -11946,87, -78,66, -18822,49, -17157,60, 0,00, 0,00, 0,00
10, -23996,65, -21008,83, -8558,30, -19543,00, -11957,22, -265,23, -18826,52, -17178,30, 0,00, 0,00, 0,00
11, -23999,94, -21004,54, -8571,36, -19536,74, -11948,10, -299,11, -18815,63, -17169,89, 0,00, 0,00, 0,00
12, -24010,20, -21006,97, -8315,74, -19537,68, -11933,04, -108,90, -18805,84, -17157,15, 0,00, 0,00, 0,00
13, -24014,47, -21013,99, -8153,11, -19548,95, -11939,32, 34,38, -18819,63, -17153,49, 0,00, 0,00, 0,00
14, -24010,11, -21018,71, -8303,09, -19552,52, -11963,01, -71,26, -18830,83, -17159,03, 0,00, 0,00, 0,00
15, -24001,53, -21012,67, -8574,80, -19546,64, -11975,37, -280,45, -18831,08, -17185,72, 0,00, 0,00, 0,00
16, -24002,69, -21005,28, -8577,86, -19538,13, -11956,44, -305,93, -18804,23, -17175,10, 0,00, 0,00, 0,00
17, -24015,50, -21012,29, -8326,67, -19541,50, -11940,10, -116,99, -18793,14, -17143,92, -0,08, 0,97, 0,25
18, -24025,87, -21024,68, -8165,11, -19553,44, -11944,28, 24,68, -18801,79, -17140,14, 0,00, 0,00, 0,00
19, -24022,58, -21028,01, -8306,11, -19563,05, -11972,02, -77,92, -18830,61, -17179,48, 0,00, 0,00, 0,00
20, -24005,46, -21013,72, -8571,36, -19549,06, -11982,10, -284,67, -18851,21, -17195,15, 0,00, 0,00, 0,00
21, -24008,77, -21006,77, -8578,55, -19538,11, -11963,97, -317,82, -18839,41, -17182,99, 0,00, 0,00, 0,00
22, -24019,65, -21008,20, -8316,28, -19538,89, -11942,22, -120,70, -18821,78, -17178,19, 0,00, 0,00, 0,00
23, -24029,49, -21021,61, -8136,68, -19552,17, -11946,85, 40,37, -18820,39, -17178,43, 0,00, 0,00, 0,00
24, -24016,79, -21016,16, -8300,70, -19550,09, -11968,78, -77,78, -18833,06, -17169,56, 0,00, 0,00, 0,00
25, -24004,97, -21005,81, -8573,06, -19539,47, -11972,64, -286,66, -18832,98, -17175,50, 0,00, 0,00, 0,00
26, -24003,29, -20996,94, -8573,23, -19524,67, -11945,31, -308,97, -18806,62, -17158,14, 0,00, 0,00, 0,00
27, -24014,62, -21002,23, -8316,95, -19521,97, -11922,91, -110,53, -18794,35, -17131,36, -0,09, 0,97, 0,25
28, -24025,93, -21013,59, -8145,36, -19534,33, -11928,25, 47,43, -18800,32, -17130,24, 0,00, 0,00, 0,00
29, -24016,48, -21015,53, -8304,90, -19538,53, -11951,77, -68,93, -18823,45, -17169,78, 0,00, 0,00, 0,00
30, -24008,77, -21012,00, -8565,23, -19530,48, -11962,21, -266,77, -18839,50, -17184,09, 0,00, 0,00, 0,00
31, -24015,99, -21010,13, -8574,11, -19526,97, -11952,35, -298,89, -18831,41, -17180,42, 0,00, 0,00, 0,00
32, -24024,82, -21011,58, -8317,80, -19521,59, -11923,58, -104,83, -18797,21, -17139,74, 0,00, 0,00, 0,00
33, -24030,36, -21020,50, -8161,47, -19529,72, -11925,28, 36,75, -18797,86, -17142,02, 0,00, 0,00, 0,00
34, -24030,96, -21028,25, -8297,86, -19541,48, -11951,14, -57,13, -18821,11, -17166,43, 0,00, 0,00, 0,00
35, -24027,48, -21028,25, -8553,16, -19541,19, -11967,93, -251,26, -18837,33, -17189,54, 0,00, 0,00, 0,00
36, -24029,73, -21023,51, -8557,39, -19532,83, -11950,67, -280,22, -18816,57, -17190,12, 0,00, 0,00, 0,00
37, -24039,95, -21029,01, -8310,74, -19530,55, -11930,51, -96,96, -18802,80, -17172,55, -0,09, 0,97, 0,25
38, -24041,36, -21036,32, -8147,68, -19536,05, -11934,24, 49,87, -18818,63, -17181,88, 0,00, 0,00, 0,00
39, -24034,09, -21037,26, -8292,14, -19538,89, -11949,24, -52,91, -18830,54, -17166,45, 0,00, 0,00, 0,00
40, -24033,42, -21039,41, -8548,13, -19536,97, -11961,25, -249,18, -18833,18, -17167,86, 0,00, 0,00, 0,00
41, -24030,27, -21029,21, -8564,09, -19522,48, -11945,75, -290,33, -18825,06, -17162,36, 0,00, 0,00, 0,00
42, -24040,11, -21032,70, -8310,85, -19523,49, -11923,11, -101,70, -18803,87, -17145,26, 0,00, 0,00, 0,00
43, -24051,64, -21048,70, -8145,76, -19539,09, -11928,81, 46,72, -18807,23, -17132,39, 0,00, 0,00, 0,00
44, -24053,25, -21058,56, -8296,27, -19550,06, -11953,04, -61,29, -18829,44, -17151,74, 0,00, 0,00, 0,00
45, -24045,76, -21053,55, -8561,92, -19539,98, -11957,24, -268,11, -18830,52, -17172,22, 0,00, 0,00, 0,00
46, -24052,64, -21052,71, -8556,94, -19532,96, -11936,46, -290,06, -18811,16, -17168,93, -0,09, 0,96, 0,25
47, -24062,48, -21055,66, -8288,72, -19532,76, -11911,96, -83,39, -18793,46, -17140,30, 0,00, 0,00, 0,00
48, -24060,06, -21056,88, -8131,65, -19537,46, -11911,38, 61,24, -18795,58, -17130,82, 0,00, 0,00, 0,00
49, -24057,81, -21065,76, -8286,55, -19545,46, -11933,71, -46,94, -18818,27, -17159,57, 0,00, 0,00, 0,00
50, -24050,45, -21062,23, -8552,22, -19541,62, -11942,34, -248,28, -18819,21, -17184,62, 0,00, 0,00, 0,00
51, -24053,36, -21057,15, -8561,63, -19535,69, -11926,15, -276,76, -18799,49, -17167,35, 0,00, 0,00, 0,00
52, -24064,98, -21061,56, -8309,53, -19538,64, -11910,31, -84,24, -18790,26, -17141,69, 0,00, 0,00, 0,00
53, -24070,53, -21071,99, -8140,48, -19549,53, -11914,02, 69,36, -18780,18, -17136,77, 0,00, 0,00, 0,00
54, -24064,54, -21074,99, -8299,00, -19555,85, -11945,58, -46,74, -18801,19, -17172,44, 0,00, 0,00, 0,00
55, -24052,73, -21064,10, -8561,70, -19548,19, -11959,57, -247,81, -18811,76, -17185,96, 0,00, 0,00, 0,00
56, -24057,23, -21060,06, -8560,36, -19538,71, -11944,93, -269,56, -18805,44, -17164,40, -0,09, 0,96, 0,25
57, -24061,92, -21056,17, -8296,79, -19530,91, -11922,11, -71,61, -18794,08, -17137,35, 0,00, 0,00, 0,00
58, -24057,65, -21056,04, -8127,99, -19536,01, -11929,44, 77,76, -18807,63, -17140,57, 0,00, 0,00, 0,00
59, -24052,64, -21059,88, -8283,98, -19552,46, -11960,08, -38,85, -18841,56, -17178,25, 0,00, 0,00, 0,00
60, -24036,98, -21046,18, -8558,80, -19545,39, -11970,63, -254,61, -18840,78, -17211,27, 0,00, 0,00, 0,00
61, -24037,91, -21038,67, -8568,25, -19531,98, -11953,20, -291,73, -18824,53, -17196,96, 0,00, 0,00, 0,00
62, -24053,36, -21049,33, -8306,60, -19535,87, -11935,43, -99,60, -18813,55, -17177,16, 0,00, 0,00, 0,00
63, -24049,83, -21049,84, -8159,59, -19536,85, -11940,01, 27,07, -18818,65, -17170,10, 0,00, 0,00, 0,00
64, -24038,94, -21046,83, -8309,82, -19539,09, -11956,91, -82,30, -18834,41, -17169,74, 0,00, 0,00, 0,00
65, -24033,56, -21042,78, -8560,18, -19540,47, -11966,14, -274,61, -18838,07, -17192,83, 0,00, 0,00, 0,00
66, -24033,13, -21035,07, -8566,78, -19525,95, -11949,00, -304,18, -18826,47, -17173,22, -0,09, 0,96, 0,26
67, -24043,77, -21039,72, -8307,38, -19527,58, -11923,27, -104,45, -18804,28, -17144,37, 0,00, 0,00, 0,00
68, -24044,64, -21048,70, -8143,34, -19530,48, -11918,42, 44,79, -18800,77, -17143,90, 0,00, 0,00, 0,00
69, -24036,33, -21050,40, -8286,84, -19537,41, -11936,19, -56,57, -18804,95, -17168,91, 0,00, 0,00, 0,00
70, -24025,04, -21038,51, -8552,92, -19532,12, -11952,35, -261,45, -18816,37, -17191,26, 0,00, 0,00, 0,00
71, -24023,19, -21030,44, -8564,09, -19519,82, -11937,42, -295,24, -18811,23, -17176,29, 0,00, 0,00, 0,00
72, -24029,62, -21032,34, -8292,81, -19513,72, -11905,30, -84,18, -18777,90, -17126,67, 0,00, 0,00, 0,00
73, -24043,19, -21048,46, -8123,27, -19527,58, -11912,41, 71,35, -18781,32, -17127,92, 0,00, 0,00, 0,00
74, -24032,73, -21045,22, -8273,92, -19529,81, -11933,42, -35,85, -18796,95, -17156,86, 0,00, 0,00, 0,00
75, -24027,52, -21042,29, -8530,92, -19529,41, -11948,39, -235,61, -18812,10, -17202,01, 0,00, 0,00, 0,00
76, -24030,02, -21034,31, -8539,19, -19522,53, -11937,71, -269,09, -18806,06, -17220,81, -0,09, 0,97, 0,26
77, -24034,70, -21030,11, -8292,61, -19512,71, -11913,52, -79,21, -18786,35, -17167,68, 0,00, 0,00, 0,00
78, -24038,52, -21036,61, -8123,90, -19520,87, -11918,55, 76,71, -18792,88, -17143,59, 0,00, 0,00, 0,00
79, -24030,49, -21038,06, -8279,29, -19525,52, -11944,86, -37,15, -18816,01, -17178,34, 0,00, 0,00, 0,00
80, -24020,88, -21029,68, -8547,75, -19521,63, -11961,29, -249,56, -18837,89, -17201,83, 0,00, 0,00, 0,00
81, -24018,65, -21021,88, -8548,76, -19505,32, -11940,77, -278,91, -18816,28, -17163,70, 0,00, 0,00, 0,00
82, -24035,66, -21032,81, -8282,04, -19515,33, -11919,42, -77,52, -18787,33, -17125,17, 0,00, 0,00, 0,00
83, -24038,72, -21040,75, -8121,22, -19524,36, -11926,17, 69,20, -18794,60, -17115,83, 0,00, 0,00, 0,00
84, -24037,76, -21047,86, -8284,96, -19535,89, -11957,22, -55,97, -18823,54, -17157,40, 0,00, 0,00, 0,00
85, -24030,76, -21042,42, -8538,66, -19536,74, -11971,44, -251,84, -18839,59, -17187,31, 0,00, 0,00, 0,00
86, -24024,19, -21029,37, -8546,70, -19528,70, -11954,94, -285,03, -18819,36, -17178,41, -0,09, 0,96, 0,26
87, -24029,26, -21028,34, -8306,11, -19523,20, -11934,92, -106,22, -18803,87, -17148,50, 0,00, 0,00, 0,00
88, -24032,95, -21034,98, -8141,09, -19533,17, -11933,22, 39,76, -18806,80, -17147,03, 0,00, 0,00, 0,00
89, -24027,03, -21038,73, -8287,76, -19542,62, -11953,47, -64,28, -18825,38, -17182,39, 0,00, 0,00, 0,00
90, -24021,35, -21035,20, -8536,89, -19539,22, -11960,44, -257,54, -18827,48, -17208,96, 0,00, 0,00, 0,00
91, -24024,50, -21030,38, -8545,52, -19534,28, -11947,61, -293,32, -18817,13, -17203,02, 0,00, 0,00, 0,00
92, -24030,90, -21029,75, -8301,33, -19534,35, -11923,92, -111,02, -18793,99, -17173,83, 0,00, 0,00, 0,00
93, -24033,40, -21037,17, -8141,94, -19536,14, -11925,93, 33,62, -18797,73, -17154,11, 0,00, 0,00, 0,00
94, -24023,23, -21036,88, -8290,53, -19535,07, -11939,94, -73,74, -18800,74, -17179,13, 0,00, 0,00, 0,00
95, -24014,87, -21029,77, -8534,48, -19532,29, -11946,09, -261,16, -18807,18, -17221,91, 0,00, 0,00, 0,00
96, -24015,74, -21021,46, -8536,00, -19526,42, -11931,67, -285,90, -18798,13, -17197,45, -0,09, 0,97, 0,26
97, -24021,58, -21020,29, -8274,33, -19522,93, -11909,39, -83,42, -18777,25, -17146,16, 0,00, 0,00, 0,00
98, -24018,09, -21022,02, -8115,90, -19523,73, -11910,44, 60,06, -18783,49, -17132,70, 0,00, 0,00, 0,00
99, -24010,89, -21020,72, -8286,26, -19528,21, -11939,07, -70,05, -18815,47, -17173,31, 0,00, 0,00, 0,00
100, -24001,84, -21014,53, -8551,80, -19520,92, -11955,59, -278,03, -18833,22, -17215,56, 0,00, 0,00, 0,00
101, -23997,90, -21003,17, -8564,47, -19509,34, -11938,78, -313,13, -18815,79, -17184,62, 0,00, 0,00, 0,00
102, -24009,51, -21008,85, -8299,18, -19504,56, -11912,38, -107,38, -18784,96, -17124,92, 0,00, 0,00, 0,00
103, -24012,39, -21018,51, -8127,34, -19515,62, -11914,71, 49,08, -18776,49, -17130,69, 0,00, 0,00, 0,00
104, -23997,19, -21012,99, -8287,60, -19516,00, -11938,96, -71,64, -18802,82, -17165,47, 0,00, 0,00, 0,00
105, -23994,78, -21013,57, -8548,74, -19514,79, -11954,09, -276,69, -18825,55, -17193,14, 0,00, 0,00, 0,00
106, -23993,28, -21005,43, -8553,32, -19504,60, -11935,38, -308,88, -18811,94, -17184,74, -0,09, 0,97, 0,27
107, -24001,19, -21004,96, -8288,61, -19505,16, -11914,98, -110,62, -18792,94, -17158,88, 0,00, 0,00, 0,00
108, -24006,04, -21013,86, -8131,85, -19519,89, -11924,34, 30,26, -18799,07, -17149,29, 0,00, 0,00, 0,00
109, -24001,79, -21018,64, -8289,17, -19531,22, -11950,52, -82,12, -18815,52, -17171,71, 0,00, 0,00, 0,00
110, -23997,66, -21014,66, -8540,33, -19536,43, -11960,95, -273,05, -18822,65, -17192,92, 0,00, 0,00, 0,00
111, -24000,23, -21009,01, -8545,00, -19531,54, -11944,28, -300,68, -18809,91, -17189,52, 0,00, 0,00, 0,00
112, -24008,03, -21007,82, -8298,24, -19529,77, -11922,73, -114,62, -18795,38, -17157,56, 0,00, 0,00, 0,00
113, -24018,02, -21022,31, -8136,95, -19548,99, -11925,77, 30,85, -18804,83, -17147,12, 0,00, 0,00, 0,00
114, -24009,17, -21023,94, -8294,26, -19553,10, -11942,89, -85,14, -18814,58, -17169,74, 0,00, 0,00, 0,00
115, -24008,34, -21023,33, -8546,21, -19554,31, -11954,52, -275,15, -18824,95, -17184,38, 0,00, 0,00, 0,00
116, -24009,86, -21014,30, -8550,06, -19545,64, -11937,57, -299,49, -18803,34, -17175,95, -0,08, 0,97, 0,26
117, -24019,25, -21015,27, -8300,79, -19543,47, -11918,35, -108,27, -18787,18, -17146,40, 0,00, 0,00, 0,00
118, -24029,00, -21027,87, -8139,07, -19559,36, -11926,26, 38,74, -18799,69, -17145,11, 0,00, 0,00, 0,00
119, -24023,32, -21031,25, -8290,75, -19566,94, -11950,90, -68,08, -18817,06, -17177,54, 0,00, 0,00, 0,00
120, -24018,11, -21025,99, -8543,04, -19567,19, -11961,71, -259,10, -18815,01, -17208,47, 0,00, 0,00, 0,00
121, -24014,11, -21012,74, -8541,61, -19545,37, -11947,16, -277,88, -18807,34, -17190,93, 0,00, 0,00, 0,00
122, -24012,43, -21003,31, -8305,93, -19530,48, -11928,95, -100,78, -18804,01, -17140,17, 0,00, 0,00, 0,00
123, -24018,96, -21012,34, -8146,74, -19545,15, -11940,17, 41,71, -18817,82, -17146,18, 0,00, 0,00, 0,00
124, -24010,42, -21011,29, -8287,65, -19548,81, -11959,79, -54,16, -18835,01, -17169,43, 0,00, 0,00, 0,00
125, -24006,02, -21008,07, -8545,59, -19552,66, -11972,62, -250,79, -18852,82, -17188,65, -0,08, 0,97, 0,25
126, -23998,82, -20992,87, -8547,89, -19541,26, -11954,07, -280,20, -18834,67, -17185,85, 0,00, 0,00, 0,00
127, -24006,60, -20994,03, -8292,47, -19539,38, -11931,29, -87,86, -18805,91, -17170,10, 0,00, 0,00, 0,00
128, -24009,71, -21002,30, -8142,99, -19546,29, -11932,63, 47,65, -18803,72, -17163,26, 0,00, 0,00, 0,00
129, -24004,05, -21005,65, -8294,62, -19551,63, -11952,75, -61,15, -18828,15, -17178,01, 0,00, 0,00, 0,00
130, -24000,27, -21003,31, -8541,92, -19554,76, -11964,84, -251,32, -18833,65, -17201,03, 0,00, 0,00, 0,00
131, -23999,85, -20995,82, -8546,64, -19547,03, -11950,49, -282,53, -18822,27, -17177,96, 0,00, 0,00, 0,00
132, -24006,04, -20996,96, -8289,08, -19539,11, -11925,97, -87,46, -18797,73, -17148,50, 0,00, 0,00, 0,00
133, -24012,32, -21008,67, -8125,28, -19552,23, -11929,51, 61,67, -18801,59, -17146,45, 0,00, 0,00, 0,00
134, -24009,44, -21013,30, -8291,04, -19564,73, -11957,33, -57,94, -18816,84, -17174,57, 0,00, 0,00, 0,00
135, -24000,56, -21005,77, -8553,43, -19562,22, -11971,39, -264,60, -18822,85, -17207,02, -0,08, 0,97, 0,26
136, -23997,32, -20993,23, -8551,24, -19552,14, -11953,58, -288,25, -18813,04, -17182,14, 0,00, 0,00, 0,00
137, -24007,27, -20997,14, -8294,53, -19549,08, -11933,08, -91,28, -18800,90, -17144,32, 0,00, 0,00, 0,00
138, -24014,58, -21009,57, -8135,34, -19557,46, -11936,99, 48,79, -18803,72, -17141,48, 0,00, 0,00, 0,00
139, -24012,10, -21015,24, -8281,19, -19569,15, -11960,73, -58,58, -18820,68, -17181,32, 0,00, 0,00, 0,00
140, -23998,29, -21003,93, -8542,19, -19559,36, -11972,76, -261,60, -18827,59, -17221,30, 0,00, 0,00, 0,00
141, -23991,80, -20989,34, -8549,30, -19541,41, -11954,70, -294,04, -18820,44, -17203,98, 0,00, 0,00, 0,00
142, -24006,00, -20994,97, -8284,14, -19537,84, -11932,30, -91,35, -18801,19, -17162,83, 0,00, 0,00, 0,00
143, -24008,57, -21000,63, -8121,42, -19545,17, -11942,89, 56,62, -18823,34, -17159,97, 0,00, 0,00, 0,00
144, -23998,51, -20999,53, -8272,51, -19547,99, -11962,00, -47,30, -18833,74, -17181,65, 0,00, 0,00, 0,00
145, -23987,94, -20992,11, -8522,47, -19543,31, -11968,73, -231,16, -18830,05, -17200,74, -0,09, 0,97, 0,26
146, -23989,57, -20985,02, -8526,81, -19524,05, -11952,84, -253,40, -18819,65, -17178,46, 0,00, 0,00, 0,00
147, -23993,28, -20982,99, -8280,38, -19512,29, -11929,44, -64,13, -18802,46, -17142,24, 0,00, 0,00, 0,00
148, -23994,15, -20990,97, -8128,73, -19521,10, -11929,77, 73,13, -18800,79, -17147,77, 0,00, 0,00, 0,00
149, -23991,45, -20998,23, -8282,24, -19537,77, -11958,88, -35,11, -18829,02, -17177,38, 0,00, 0,00, 0,00
150, -23978,19, -20987,42, -8551,02, -19535,78, -11967,95, -244,33, -18837,33, -17201,10, 0,00, 0,00, 0,00
151, -23984,45, -20983,13, -8551,71, -19533,17, -11951,61, -271,71, -18822,31, -17194,48, 0,00, 0,00, 0,00
152, -23999,29, -20991,93, -8287,04, -19533,88, -11932,66, -68,24, -18809,98, -17161,67, 0,00, 0,00, 0,00
153, -23996,47, -20994,34, -8131,85, -19544,25, -11935,14, 70,65, -18810,58, -17148,12, 0,00, 0,00, 0,00
154, -23989,34, -20998,23, -8293,61, -19546,35, -11959,43, -51,90, -18831,79, -17177,36, 0,00, 0,00, 0,00
155, -23983,58, -20992,96, -8549,07, -19549,33, -11968,00, -251,70, -18824,28, -17211,04, -0,09, 0,97, 0,27
156, -23982,91, -20983,53, -8550,93, -19544,52, -11951,79, -282,66, -18802,98, -17210,84, 0,00, 0,00, 0,00
157, -23992,94, -20984,17, -8291,51, -19539,22, -11928,08, -86,64, -18781,32, -17161,80, 0,00, 0,00, 0,00
158, -24005,62, -20996,13, -8124,39, -19551,03, -11935,65, 63,88, -18793,37, -17155,77, 0,00, 0,00, 0,00
159, -23989,32, -20988,64, -8282,28, -19549,84, -11954,20, -58,36, -18811,07, -17199,40, 0,00, 0,00, 0,00
160, -23980,34, -20982,50, -8528,24, -19539,76, -11959,75, -250,07, -18806,85, -17205,12, 0,00, 0,00, 0,00
161, -23979,84, -20973,96, -8531,46, -19530,28, -11942,96, -280,94, -18797,46, -17174,07, 0,00, 0,00, 0,00
162, -23992,07, -20980,04, -8261,43, -19525,46, -11919,04, -70,43, -18781,28, -17144,66, 0,00, 0,00, 0,00
163, -23999,56, -20992,89, -8111,60, -19534,89, -11932,50, 66,16, -18796,41, -17155,95, 0,00, 0,00, 0,00
164, -23987,44, -20990,10, -8271,29, -19540,50, -11961,76, -54,11, -18826,92, -17203,51, 0,00, 0,00, 0,00
165, -23976,47, -20980,22, -8527,66, -19529,70, -11970,88, -253,13, -18825,40, -17240,93, -0,09, 0,97, 0,26
166, -23971,96, -20968,77, -8519,93, -19510,90, -11944,86, -269,65, -18803,49, -17200,07, 0,00, 0,00, 0,00
167, -23981,61, -20971,48, -8254,32, -19512,54, -11917,48, -62,12, -18780,92, -17140,28, 0,00, 0,00, 0,00
168, -23983,38, -20978,70, -8097,72, -19517,47, -11919,69, 81,09, -18788,92, -17138,06, 0,00, 0,00, 0,00
169, -23973,77, -20979,10, -8259,71, -19516,43, -11944,93, -37,01, -18818,29, -17172,71, 0,00, 0,00, 0,00
170, -23969,03, -20975,86, -8513,62, -19529,10, -11959,12, -233,40, -18832,48, -17212,12, 0,00, 0,00, 0,00
171, -23969,05, -20966,00, -8506,07, -19507,62, -11937,69, -249,60, -18814,83, -17206,55, 0,00, 0,00, 0,00
172, -23981,59, -20971,81, -8246,25, -19512,09, -11920,99, -47,52, -18811,03, -17166,65, 0,00, 0,00, 0,00
173, -23981,28, -20975,70, -8109,70, -19518,15, -11922,24, 80,60, -18802,42, -17151,83, 0,00, 0,00, 0,00
174, -23975,64, -20978,74, -8253,02, -19528,56, -11938,11, -15,45, -18801,26, -17169,43, 0,00, 0,00, 0,00
175, -23970,32, -20975,59, -8506,56, -19524,18, -11946,67, -204,94, -18794,33, -17173,67, -0,08, 0,98, 0,26
176, -23971,82, -20967,52, -8518,43, -19515,89, -11935,18, -239,25, -18789,52, -17161,00, 0,00, 0,00, 0,00
177, -23980,18, -20968,62, -8255,93, -19515,89, -11912,96, -35,81, -18770,55, -17117,97, 0,00, 0,00, 0,00
178, -23990,26, -20983,50, -8088,63, -19532,21, -11923,87, 116,32, -18778,71, -17120,56, 0,00, 0,00, 0,00
179, -23980,83, -20981,85, -8254,81, -19539,76, -11954,52, -8,92, -18809,46, -17161,98, 0,00, 0,00, 0,00
180, -23974,53, -20975,48, -8539,28, -19538,11, -11975,26, -238,45, -18835,12, -17211,94, 0,00, 0,00, 0,00
181, -23976,02, -20966,92, -8541,36, -19529,03, -11955,88, -273,94, -18813,93, -17208,81, 0,00, 0,00, 0,00
182, -23986,06, -20967,97, -8270,41, -19529,41, -11932,79, -69,18, -18789,26, -17160,10, 0,00, 0,00, 0,00
183, -23989,05, -20974,00, -8109,48, -19543,83, -11937,95, 77,54, -18789,81, -17154,16, 0,00, 0,00, 0,00
184, -23982,35, -20976,57, -8269,61, -19553,46, -11961,02, -38,07, -18804,21, -17193,83, 0,00, 0,00, 0,00
185, -23978,23, -20973,02, -8526,01, -19541,97, -11975,84, -234,63, -18823,95, -17215,63, -0,08, 0,97, 0,25
186, -23974,41, -20959,70, -8535,88, -19528,29, -11961,33, -269,54, -18820,06, -17206,46, 0,00, 0,00, 0,00
187, -23977,59, -20956,64, -8272,36, -19517,01, -11931,94, -67,10, -18797,28, -17169,47, 0,00, 0,00, 0,00
188, -23977,36, -20961,71, -8102,53, -19524,45, -11929,77, 88,36, -18797,19, -17156,66, 0,00, 0,00, 0,00
189, -23972,16, -20965,85, -8251,75, -19536,90, -11952,44, -18,10, -18817,75, -17192,89, 0,00, 0,00, 0,00
190, -23963,21, -20958,20, -8509,13, -19521,77, -11959,43, -210,80, -18826,72, -17200,92, 0,00, 0,00, 0,00
191, -23960,38, -20947,14, -8513,47, -19505,07, -11936,05, -232,97, -18808,61, -17174,34, 0,00, 0,00, 0,00
192, -23966,54, -20946,45, -8261,76, -19502,59, -11907,13, -41,93, -18777,28, -17147,23, 0,00, 0,00, 0,00
193, -23977,41, -20958,78, -8096,76, -19513,34, -11908,65, 107,98, -18774,21, -17145,15, 0,00, 0,00, 0,00
194, -23975,15, -20964,24, -8251,33, -19523,62, -11934,85, 0,69, -18796,90, -17168,06, 0,00, 0,00, 0,00
195, -23967,35, -20957,49, -8513,18, -19522,37, -11946,27, -197,30, -18809,24, -17170,92, -0,09, 0,96, 0,25
196, -23968,60, -20951,36, -8512,01, -19524,34, -11931,61, -219,96, -18791,76, -17157,80, 0,00, 0,00, 0,00
197, -23977,65, -20954,96, -8264,58, -19521,50, -11912,12, -30,11, -18775,06, -17127,83, 0,00, 0,00, 0,00
198, -23974,90, -20956,46, -8112,74, -19512,65, -11911,47, 107,11, -18777,41, -17114,66, 0,00, 0,00, 0,00
199, -23976,63, -20966,65, -8267,93, -19528,52, -11939,56, -8,14, -18798,26, -17166,72, 0,00, 0,00, 0,00
200, -23976,80, -20969,22, -8522,12, -19540,34, -11950,61, -205,66, -18800,57, -17187,08, 0,00, 0,00, 0,00
201, -23973,97, -20959,83, -8531,97, -19537,28, -11935,50, -244,62, -18779,82, -17172,93, 0,00, 0,00, 0,00
202, -23982,71, -20962,83, -8274,35, -19521,37, -11917,12, -51,39, -18760,69, -17156,93, 0,00, 0,00, 0,00
203, -23986,35, -20970,21, -8107,36, -19528,47, -11924,72, 95,51, -18774,26, -17159,99, 0,00, 0,00, 0,00
204, -23976,94, -20971,08, -8264,80, -19530,42, -11951,23, -24,16, -18799,78, -17174,95, -0,09, 0,96, 0,25
205, -23961,58, -20955,68, -8520,02, -19525,19, -11959,55, -224,90, -18801,79, -17201,92, 0,00, 0,00, 0,00
206, -23967,06, -20954,96, -8507,61, -19520,13, -11942,11, -243,14, -18781,77, -17185,21, 0,00, 0,00, 0,00
207, -23973,50, -20957,24, -8243,70, -19527,65, -11923,67, -48,10, -18772,83, -17156,73, 0,00, 0,00, 0,00
208, -23979,15, -20967,08, -8084,31, -19540,03, -11935,47, 91,69, -18792,72, -17171,19, 0,00, 0,00, 0,00
209, -23969,16, -20964,42, -8242,85, -19531,36, -11959,26, -25,97, -18825,58, -17192,34, 0,00, 0,00, 0,00
210, -23958,88, -20957,04, -8505,64, -19526,30, -11965,83, -229,53, -18822,92, -17203,89, 0,00, 0,00, 0,00
211, -23952,49, -20945,82, -8520,28, -19511,51, -11943,18, -268,42, -18793,68, -17175,06, 0,00, 0,00, 0,00
212, -23962,88, -20951,63, -8263,42, -19517,32, -11923,11, -70,05, -18775,38, -17139,05, 0,00, 0,00, 0,00
213, -23968,11, -20962,90, -8101,88, -19530,98, -11930,51, 79,66, -18790,42, -17138,47, 0,00, 0,00, 0,00
214, -23962,50, -20966,76, -8252,17, -19532,50, -11949,35, -23,56, -18797,19, -17169,63, -0,09, 0,97, 0,26
215, -23959,42, -20966,18, -8506,45, -19533,10, -11957,18, -212,57, -18801,86, -17181,05, 0,00, 0,00, 0,00
216, -23964,13, -20964,17, -8514,25, -19517,12, -11941,37, -240,26, -18792,32, -17176,18, 0,00, 0,00, 0,00
217, -23975,84, -20969,80, -8256,38, -19519,85, -11919,49, -43,21, -18770,19, -17147,30, 0,00, 0,00, 0,00
218, -23980,83, -20981,40, -8104,38, -19539,94, -11932,41, 93,70, -18783,73, -17146,89, 0,00, 0,00, 0,00
219, -23969,03, -20981,22, -8275,60, -19543,25, -11952,86, -36,41, -18809,53, -17176,69, 0,00, 0,00, 0,00
220, -23972,89, -20988,29, -8520,80, -19552,28, -11959,77, -225,17, -18814,74, -17200,70, 0,00, 0,00, 0,00
221, -23977,32, -20988,20, -8519,23, -19551,29, -11952,24, -250,72, -18811,61, -17210,51, 0,00, 0,00, 0,00
222, -23979,42, -20986,12, -8274,77, -19552,14, -11931,56, -67,28, -18776,25, -17175,33, 0,00, 0,00, 0,00
223, -23984,49, -20993,72, -8123,36, -19558,67, -11940,28, 70,25, -18775,55, -17165,22, 0,00, 0,00, 0,00
224, -23973,94, -20992,67, -8284,88, -19566,58, -11968,51, -49,98, -18806,58, -17209,97, -0,08, 0,97, 0,26
225, -23967,89, -20989,20, -8535,19, -19559,52, -11982,50, -244,68, -18821,46, -17223,11, 0,00, 0,00, 0,00
226, -23966,81, -20982,21, -8541,07, -19552,43, -11969,85, -278,44, -18816,21, -17221,44, 0,00, 0,00, 0,00
227, -23972,56, -20983,46, -8293,50, -19553,30, -11948,64, -95,82, -18797,10, -17202,39, 0,00, 0,00, 0,00
228, -23977,21, -20991,46, -8139,03, -19558,54, -11955,41, 42,00, -18808,66, -17177,43, 0,00, 0,00, 0,00
229, -23967,75, -20990,66, -8283,71, -19563,23, -11975,24, -61,71, -18824,13, -17189,94, 0,00, 0,00, 0,00
230, -23955,19, -20979,17, -8523,37, -19543,94, -11981,34, -241,89, -18823,79, -17198,64, 0,00, 0,00, 0,00
231, -23953,22, -20966,74, -8515,50, -19531,80, -11964,58, -256,26, -18810,31, -17180,13, 0,00, 0,00, 0,00
232, -23965,18, -20971,14, -8252,08, -19532,16, -11944,24, -50,11, -18795,00, -17152,79, 0,00, 0,00, 0,00
233, -23971,84, -20981,60, -8087,22, -19547,85, -11949,00, 102,80, -18800,25, -17154,61, 0,00, 0,00, 0,00
234, -23965,58, -20983,62, -8265,99, -19561,91, -11977,32, -31,94, -18829,27, -17185,99, -0,09, 0,97, 0,26
235, -23956,64, -20974,03, -8520,42, -19540,86, -11980,40, -227,56, -18826,96, -17202,51, 0,00, 0,00, 0,00
236, -23955,37, -20960,77, -8519,77, -19523,02, -11957,78, -252,31, -18799,58, -17182,46, 0,00, 0,00, 0,00
237, -23969,32, -20967,19, -8254,21, -19532,59, -11938,83, -48,15, -18780,67, -17150,34, 0,00, 0,00, 0,00
238, -23974,95, -20976,06, -8102,48, -19534,84, -11945,71, 88,92, -18794,62, -17157,02, 0,00, 0,00, 0,00
239, -23973,74, -20982,52, -8258,61, -19538,11, -11964,75, -29,10, -18801,42, -17188,63, 0,00, 0,00, 0,00
240, -23968,04, -20975,48, -8507,99, -19531,91, -11970,41, -222,06, -18799,31, -17196,11, 0,00, 0,00, 0,00
241, -23971,06, -20970,45, -8511,43, -19526,91, -11954,90, -250,70, -18782,77, -17187,37, 0,00, 0,00, 0,00
242, -23972,60, -20967,25, -8272,87, -19519,60, -11927,92, -73,51, -18754,65, -17156,28, 0,00, 0,00, 0,00
243, -23987,38, -20985,70, -8100,83, -19529,30, -11932,46, 78,32, -18759,21, -17153,53, 0,00, 0,00, 0,00
244, -23982,28, -20990,59, -8248,06, -19535,22, -11957,83, -30,76, -18786,13, -17174,95, -0,09, 0,96, 0,25
245, -23972,71, -20983,59, -8514,20, -19527,49, -11971,62, -242,40, -18810,31, -17207,02, 0,00, 0,00, 0,00
246, -23969,72, -20972,87, -8516,60, -19514,70, -11952,53, -274,23, -18795,27, -17193,99, 0,00, 0,00, 0,00
247, -23977,56, -20976,13, -8264,31, -19516,18, -11930,22, -87,55, -18760,33, -17184,69, 0,00, 0,00, 0,00
248, -23983,26, -20985,47, -8122,91, -19522,21, -11939,23, 36,57, -18769,81, -17179,46, 0,00, 0,00, 0,00
249, -23974,59, -20982,56, -8279,40, -19523,76, -11960,73, -83,46, -18790,11, -17176,96, 0,00, 0,00, 0,00
250, -23971,64, -20980,42, -8523,73, -19528,25, -11979,53, -282,12, -18814,96, -17193,65, 0,00, 0,00, 0,00
251, -23974,23, -20974,36, -8510,52, -19508,38, -11962,21, -285,77, -18793,17, -17183,28, 0,00, 0,00, 0,00
252, -23982,77, -20977,11, -8251,35, -19502,16, -11935,92, -73,43, -18764,83, -17140,84, 0,00, 0,00, 0,00
253, -23991,29, -20988,82, -8088,43, -19517,70, -11944,66, 76,87, -18779,76, -17146,25, 0,00, 0,00, 0,00
254, -23986,60, -20992,98, -8251,57, -19523,18, -11975,64, -47,99, -18803,87, -17187,42, -0,08, 0,97, 0,26
255, -23974,28, -20981,04, -8511,97, -19528,52, -11984,45, -261,09, -18809,24, -17210,26, 0,00, 0,00, 0,00
0, -23977,56, -20975,79, -8517,45, -19511,66, -11962,14, -282,32, -18796,59, -17189,99, 0,00, 0,00, 0,00
1, -23991,98, -20984,85, -8255,50, -19495,24, -11937,31, -64,89, -18770,66, -17147,07, 0,00, 0,00, 0,00
2, -24001,77, -20997,83, -8075,77, -19508,00, -11940,28, 100,96, -18772,13, -17130,71, 0,00, 0,00, 0,00
3, -23991,89, -20996,58, -8250,99, -19518,17, -11972,33, -38,96, -18803,36, -17181,72, 0,00, 0,00, 0,00
4, -23983,24, -20986,92, -8508,53, -19514,14, -11985,38, -257,13, -18811,38, -17233,46, 0,00, 0,00, 0,00
5, -23981,19, -20977,78, -8512,04, -19496,33, -11963,68, -281,61, -18793,77, -17207,58, 0,00, 0,00, 0,00
6, -23994,89, -20981,60, -8249,45, -19492,82, -11932,59, -68,37, -18754,21, -17147,99, 0,00, 0,00, 0,00
7, -24001,06, -20986,99, -8089,70, -19500,98, -11935,85, 77,09, -18756,80, -17147,83, 0,00, 0,00, 0,00
8, -23991,85, -20986,28, -8259,19, -19499,13, -11962,68, -56,01, -18784,90, -17179,73, -0,06, 0,97, 0,27
9, -23983,06, -20976,71, -8521,45, -19494,43, -11972,96, -274,95, -18797,35, -17193,56, 0,00, 0,00, 0,00
10, -23980,00, -20963,07, -8513,47, -19479,75, -11944,86, -287,51, -18769,25, -17168,69, 0,00, 0,00, 0,00
11, -23997,73, -20976,46, -8247,28, -19482,52, -11925,35, -73,40, -18752,71, -17149,87, 0,00, 0,00, 0,00
12, -24002,58, -20985,85, -8091,76, -19506,21, -11936,75, 66,23, -18769,52, -17153,38, 0,00, 0,00, 0,00
13, -23994,51, -20985,09, -8255,39, -19514,82, -11969,27, -59,90, -18815,12, -17195,69, 0,00, 0,00, 0,00
14, -23983,20, -20971,88, -8510,74, -19504,13, -11983,22, -269,07, -18842,27, -17223,20, 0,00, 0,00, 0,00
15, -23988,05, -20964,68, -8512,15, -19497,56, -11968,73, -282,26, -18823,79, -17204,25, 0,00, 0,00, 0,00
16, -23995,38, -20964,06, -8245,02, -19496,64, -11940,17, -54,38, -18768,96, -17162,94, 0,00, 0,00, 0,00
17, -23997,64, -20967,84, -8104,12, -19510,41, -11948,79, 86,97, -18780,45, -17166,61, -0,06, 0,95, 0,26
18, -23997,26, -20974,56, -8275,67, -19527,29, -11979,80, -32,59, -18817,11, -17202,17, 0,00, 0,00, 0,00
19, -23990,46, -20966,29, -8538,05, -19533,19, -11995,00, -236,68, -18837,00, -17234,94, 0,00, 0,00, 0,00
20, -23998,11, -20963,39, -8529,67, -19533,90, -11983,60, -233,22, -18821,38, -17234,96, 0,00, 0,00, 0,00
21, -24006,18, -20962,38, -8283,53, -19544,43, -11965,69, -23,94, -18803,90, -17202,01, 0,00, 0,00, 0,00
22, -24017,42, -20970,43, -8128,30, -19560,95, -11971,30, 128,92, -18814,60, -17180,04, 0,00, 0,00, 0,00
23, -24009,68, -20965,69, -8295,00, -19571,32, -11999,85, 8,74, -18846,68, -17214,24, 0,00, 0,00, 0,00
24, -23998,87, -20950,42, -8551,67, -19569,38, -12001,30, -196,40, -18835,46, -17235,79, 0,00, 0,00, 0,00
25, -24010,87, -20950,42, -8538,19, -19574,70, -11980,85, -196,29, -18795,98, -17233,57, 0,00, 0,00, 0,00
26, -24026,92, -20955,43, -8267,26, -19582,74, -11958,12, 28,74, -18782,64, -17194,26, 0,00, 0,00, 0,00
27, -24033,71, -20964,26, -8130,16, -19604,67, -11964,15, 154,43, -18799,92, -17169,51, -0,12, 0,94, 0,24
28, -24028,86, -20968,21, -8295,00, -19622,55, -11984,63, 19,02, -18816,50, -17203,56, 0,00, 0,00, 0,00
29, -24009,66, -20956,68, -8552,92, -19598,30, -11989,83, -200,45, -18822,25, -17213,95, 0,00, 0,00, 0,00
30, -24006,49, -20952,32, -8543,98, -19606,70, -11969,85, -217,21, -18798,93, -17201,99, 0,00, 0,00, 0,00
31, -24014,89, -20959,03, -8286,57, -19625,66, -11952,97, -17,64, -18789,48, -17186,75, 0,00, 0,00, 0,00
32, -24024,75, -20967,66, -8134,96, -19643,61, -11960,46, 113,88, -18783,13, -17168,69, 0,00, 0,00, 0,00
33, -24019,09, -20963,70, -8296,83, -19646,56, -11993,19, -18,35, -18816,57, -17204,07, 0,00, 0,00, 0,00
34, -23997,68, -20938,71, -8551,00, -19618,55, -11995,02, -238,52, -18817,17, -17224,95, 0,00, 0,00, 0,00
35, -23993,97, -20926,02, -8554,50, -19596,71, -11971,79, -272,94, -18786,53, -17196,69, 0,00, 0,00, 0,00
36, -23997,37, -20924,92, -8295,45, -19594,70, -11947,92, -77,43, -18768,40, -17181,43, 0,00, 0,00, 0,00
37, -24001,66, -20934,73, -8122,18, -19601,09, -11950,90, 65,58, -18768,76, -17176,96, -0,16, 0,99, 0,21
38, -23997,82, -20943,99, -8289,26, -19594,68, -11981,85, -83,80, -18806,58, -17212,77, 0,00, 0,00, 0,00
39, -23978,97, -20927,56, -8551,58, -19579,03, -11990,44, -323,92, -18817,06, -17242,52, 0,00, 0,00, 0,00
40, -23980,16, -20925,39, -8537,85, -19568,28, -11972,73, -347,79, -18798,20, -17241,29, 0,00, 0,00, 0,00
41, -23987,24, -20931,04, -8273,59, -19559,92, -11941,91, -143,23, -18771,93, -17198,15, 0,00, 0,00, 0,00
42, -23993,01, -20949,89, -8132,10, -19562,45, -11942,18, -17,95, -18776,16, -17164,78, 0,00, 0,00, 0,00
43, -23992,00, -20967,14, -8301,01, -19571,16, -11966,88, -154,36, -18793,46, -17170,36, 0,00, 0,00, 0,00
44, -23984,70, -20970,38, -8560,96, -19570,31, -11978,54, -371,37, -18804,05, -17185,12, 0,00, 0,00, 0,00
45, -23989,95, -20977,13, -8553,14, -19563,50, -11965,09, -378,19, -18793,21, -17167,75, 0,00, 0,00, 0,00
46, -24001,95, -20989,70, -8304,72, -19558,04, -11947,99, -164,84, -18781,01, -17151,59, 0,00, 0,00, 0,00
47, -24009,77, -21011,22, -8154,03, -19560,48, -11960,04, -7,00, -18801,71, -17177,49, -0,13, 0,99, 0,22
48, -24008,88, -21027,16, -8320,24, -19578,03, -11987,89, -115,87, -18822,38, -17224,14, 0,00, 0,00, 0,00
49, -23997,37, -21021,72, -8583,32, -19568,75, -11991,87, -310,78, -18816,57, -17233,11, 0,00, 0,00, 0,00
50, -23998,22, -21020,03, -8585,26, -19548,75, -11972,26, -305,64, -18798,15, -17212,23, 0,00, 0,00, 0,00
51, -24009,46, -21029,44, -8321,98, -19549,97, -11954,74, -59,17, -18784,96, -17169,02, 0,00, 0,00, 0,00
52, -24007,16, -21036,03, -8172,29, -19554,69, -11960,95, 112,79, -18788,79, -17162,09, 0,00, 0,00, 0,00
53, -23999,71, -21044,17, -8336,91, -19556,75, -11985,27, 13,50, -18808,52, -17196,69, 0,00, 0,00, 0,00
54, -23995,07, -21046,98, -8584,52, -19551,88, -12002,39, -162,92, -18833,71, -17229,98, 0,00, 0,00, 0,00
55, -23989,79, -21036,99, -8564,25, -19534,31, -11981,58, -138,78, -18808,46, -17211,31, 0,00, 0,00, 0,00
56, -23993,28, -21037,17, -8303,11, -19526,95, -11959,61, 96,47, -18779,76, -17175,91, 0,00, 0,00, 0,00
57, -23993,55, -21050,07, -8157,25, -19521,86, -11968,02, 243,03, -18797,08, -17180,38, -0,06, 0,99, 0,25
58, -23987,42, -21056,57, -8331,14, -19519,04, -11993,88, 109,39, -18815,09, -17204,38, 0,00, 0,00, 0,00
59, -23976,80, -21049,71, -8574,00, -19503,10, -12002,75, -88,40, -18812,95, -17225,39, 0,00, 0,00, 0,00
60, -23977,03, -21046,31, -8562,33, -19488,96, -11987,82, -97,65, -18803,61, -17210,20, 0,00, 0,00, 0,00
61, -23993,50, -21058,61, -8311,47, -19495,21, -11972,58, 101,41, -18798,20, -17179,57, 0,00, 0,00, 0,00
62, -24001,23, -21069,33, -8155,19, -19508,06, -11981,90, 242,02, -18812,35, -17175,66, 0,00, 0,00, 0,00
63, -23986,60, -21066,47, -8346,01, -19494,54, -12005,12, 84,20, -18829,02, -17197,57, 0,00, 0,00, 0,00
64, -23970,59, -21053,76, -8607,12, -19481,27, -12004,54, -141,35, -18821,26, -17209,52, 0,00, 0,00, 0,00
65, -23968,38, -21042,38, -8594,11, -19469,13, -11978,84, -150,11, -18793,95, -17172,69, 0,00, 0,00, 0,00
66, -23981,52, -21047,56, -8328,97, -19467,83, -11954,85, 69,56, -18774,71, -17138,67, 0,00, 0,00, 0,00
67, -23990,69, -21057,47, -8192,72, -19480,57, -11964,22, 195,60, -18783,33, -17144,95, -0,03, 0,95, 0,27
68, -23980,94, -21051,86, -8375,98, -19479,19, -11985,25, 52,75, -18803,22, -17177,23, 0,00, 0,00, 0,00
69, -23971,26, -21036,77, -8621,56, -19475,88, -11986,28, -143,16, -18800,16, -17186,19, 0,00, 0,00, 0,00
70, -23973,27, -21022,91, -8605,29, -19464,72, -11959,52, -138,96, -18765,74, -17154,70, 0,00, 0,00, 0,00
71, -23987,82, -21023,65, -8341,80, -19464,50, -11936,37, 86,84, -18748,55, -17123,56, 0,00, 0,00, 0,00
72, -23993,46, -21025,82, -8199,16, -19481,65, -11942,98, 228,21, -18755,82, -17128,68, 0,00, 0,00, 0,00
73, -23993,79, -21027,98, -8353,32, -19502,25, -11964,29, 118,42, -18767,53, -17161,69, 0,00, 0,00, 0,00
74, -23986,30, -21015,94, -8604,42, -19501,85, -11975,44, -80,53, -18779,76, -17192,71, 0,00, 0,00, 0,00
75, -23996,09, -21010,44, -8588,39, -19489,54, -11964,15, -75,64, -18767,84, -17178,14, 0,00, 0,00, 0,00
76, -24009,39, -21010,97, -8337,02, -19491,32, -11954,88, 133,69, -18772,38, -17164,96, 0,00, 0,00, 0,00
77, -24012,03, -21013,79, -8182,50, -19505,05, -11960,91, 280,25, -18770,37, -17156,42, -0,04, 0,96, 0,28
78, -24005,91, -21011,06, -8343,50, -19515,51, -11990,37, 157,67, -18787,18, -17185,72, 0,00, 0,00, 0,00
79, -23996,25, -20998,81, -8606,27, -19509,59, -12011,13, -64,69, -18815,41, -17224,25, 0,00, 0,00, 0,00
80, -23993,72, -20984,58, -8599,10, -19495,57, -11989,25, -81,07, -18797,37, -17206,42, 0,00, 0,00, 0,00
81, -23999,76, -20981,16, -8338,34, -19493,29, -11961,67, 124,72, -18777,32, -17158,03, 0,00, 0,00, 0,00
82, -24005,53, -20989,70, -8192,27, -19497,65, -11971,42, 244,04, -18791,92, -17163,48, 0,00, 0,00, 0,00
83, -23992,72, -20981,54, -8357,58, -19496,35, -11991,11, 99,47, -18814,07, -17200,47, 0,00, 0,00, 0,00
84, -23988,85, -20974,81, -8594,29, -19491,64, -11996,92, -106,60, -18816,55, -17211,76, 0,00, 0,00, 0,00
85, -23990,37, -20964,46, -8585,62, -19487,10, -11977,36, -132,66, -18797,75, -17186,46, 0,00, 0,00, 0,00
86, -24000,95, -20964,64, -8319,03, -19505,16, -11954,03, 66,70, -18763,86, -17150,87, 0,00, 0,00, 0,00
87, -24005,19, -20970,16, -8174,66, -19502,48, -11959,17, 187,55, -18766,01, -17140,19, -0,07, 0,96, 0,28
88, -24003,74, -20972,11, -8335,61, -19500,91, -11976,71, 51,83, -18778,77, -17162,07, 0,00, 0,00, 0,00
89, -24008,50, -20976,42, -8576,34, -19511,87, -11987,37, -159,88, -18785,95, -17189,32, 0,00, 0,00, 0,00
90, -24007,65, -20965,47, -8571,67, -19510,46, -11973,40, -181,76, -18781,90, -17180,42, 0,00, 0,00, 0,00
91, -24017,33, -20968,57, -8316,55, -19512,76, -11950,58, 24,90, -18765,32, -17134,38, 0,00, 0,00, 0,00
92, -24020,50, -20973,85, -8171,33, -19522,59, -11951,05, 158,12, -18761,21, -17133,57, 0,00, 0,00, 0,00
93, -24014,00, -20975,68, -8337,18, -19530,24, -11974,25, 30,87, -18784,70, -17167,19, 0,00, 0,00, 0,00
94, -24002,67, -20964,64, -8594,92, -19523,64, -11984,54, -182,41, -18792,23, -17197,12, 0,00, 0,00, 0,00
95, -24003,98, -20957,13, -8589,53, -19516,11, -11969,65, -195,60, -18779,44, -17186,05, 0,00, 0,00, 0,00
96, -24018,71, -20965,73, -8323,70, -19523,02, -11950,78, 27,92, -18778,53, -17153,76, -0,10, 0,95, 0,28
97, -24023,19, -20974,59, -8169,88, -19539,40, -11960,89, 174,54, -18789,03, -17166,41, 0,00, 0,00, 0,00
98, -24012,17, -20974,34, -8329,29, -19543,49, -11985,61, 55,07, -18797,64, -17200,92, 0,00, 0,00, 0,00
99, -24003,29, -20968,21, -8579,94, -19543,45, -11998,44, -147,10, -18815,50, -17203,71, 0,00, 0,00, 0,00
100, -24005,86, -20964,51, -8569,10, -19526,51, -11979,17, -155,03, -18783,06, -17193,23, 0,00, 0,00, 0,00
101, -24011,16, -20965,29, -8316,73, -19534,22, -11965,56, 48,08, -18782,68, -17162,79, 0,00, 0,00, 0,00
102, -24012,63, -20973,94, -8174,39, -19543,56, -11976,24, 176,11, -18801,19, -17165,38, 0,00, 0,00, 0,00
103, -24002,40, -20973,27, -8331,72, -19547,92, -11998,75, 47,86, -18821,49, -17196,07, 0,00, 0,00, 0,00
104, -23992,16, -20963,25, -8587,70, -19529,75, -12004,00, -173,83, -18827,54, -17227,20, 0,00, 0,00, 0,00
105, -23996,36, -20958,18, -8562,08, -19508,49, -11976,44, -178,57, -18789,88, -17212,45, 0,00, 0,00, 0,00
106, -24010,56, -20968,60, -8290,64, -19515,04, -11961,02, 35,11, -18775,71, -17188,09, -0,10, 0,96, 0,27
107, -24002,26, -20968,44, -8155,17, -19519,49, -11968,11, 144,93, -18796,16, -17195,49, 0,00, 0,00, 0,00
108, -23992,07, -20971,88, -8329,76, -19523,98, -11991,33, -7,55, -18839,99, -17211,85, 0,00, 0,00, 0,00
109, -23978,03, -20965,71, -8583,96, -19508,58, -11991,67, -229,24, -18823,57, -17215,29, 0,00, 0,00, 0,00
110, -23982,46, -20969,36, -8569,61, -19493,76, -11967,03, -246,36, -18774,10, -17188,38, 0,00, 0,00, 0,00
111, -23997,21, -20987,39, -8313,62, -19499,30, -11949,29, -46,58, -18746,79, -17168,22, 0,00, 0,00, 0,00
112, -24010,85, -21007,29, -8171,62, -19524,07, -11973,92, 80,20, -18820,97, -17184,87, 0,00, 0,00, 0,00
113, -24004,39, -21010,37, -8338,16, -19534,73, -12006,22, -51,01, -18915,90, -17224,52, 0,00, 0,00, 0,00
114, -23980,83, -21001,56, -8576,68, -19513,12, -11988,56, -240,48, -18819,88, -17220,21, 0,00, 0,00, 0,00
115, -23983,18, -21013,84, -8569,52, -19500,69, -11959,68, -244,08, -18738,94, -17180,67, 0,00, 0,00, 0,00
116, -23991,49, -21031,81, -8321,71, -19504,62, -11944,71, -35,74, -18718,94, -17162,92, -0,07, 0,95, 0,28
117, -23993,48, -21042,09, -8167,22, -19513,25, -11952,77, 117,39, -18735,99, -17159,66, 0,00, 0,00, 0,00
118, -23984,96, -21046,89, -8334,67, -19518,88, -11982,34, 0,04, -18780,85, -17201,79, 0,00, 0,00, 0,00
119, -23977,74, -21043,96, -8592,86, -19521,81, -11999,40, -201,64, -18819,77, -17251,54, 0,00, 0,00, 0,00
120, -23979,87, -21036,52, -8584,12, -19512,47, -11982,64, -198,64, -18802,42, -17232,55, 0,00, 0,00, 0,00
121, -23987,94, -21037,91, -8315,61, -19508,71, -11962,14, 35,79, -18766,57, -17193,77, 0,00, 0,00, 0,00
122, -23992,00, -21046,76, -8169,99, -19518,28, -11977,32, 184,42, -18787,96, -17196,72, 0,00, 0,00, 0,00
123, -23985,37, -21046,31, -8344,71, -19525,12, -12005,75, 57,18, -18815,25, -17237,29, 0,00, 0,00, 0,00
124, -23968,96, -21029,01, -8599,05, -19509,61, -12006,11, -149,40, -18799,47, -17243,25, 0,00, 0,00, 0,00
125, -23966,57, -21015,82, -8573,82, -19496,42, -11980,69, -139,90, -18780,29, -17220,54, 0,00, 0,00, 0,00
126, -23978,26, -21018,51, -8296,41, -19498,81, -11962,63, 89,05, -18774,06, -17195,35, -0,06, 0,95, 0,28
127, -23982,24, -21024,25, -8144,55, -19511,42, -11975,93, 226,60, -18791,76, -17192,94, 0,00, 0,00, 0,00
128, -23969,18, -21018,84, -8326,20, -19514,68, -11999,85, 76,67, -18817,89, -17230,15, 0,00, 0,00, 0,00
129, -23957,56, -21004,74, -8579,65, -19503,53, -12001,23, -142,89, -18814,63, -17260,17, 0,00, 0,00, 0,00
130, -23963,88, -20998,81, -8549,90, -19499,84, -11980,49, -142,78, -18796,50, -17231,32, 0,00, 0,00, 0,00
131, -23972,54, -21000,45, -8296,72, -19492,06, -11962,18, 54,18, -18787,67, -17193,12, 0,00, 0,00, 0,00
132, -23976,31, -21005,52, -8150,72, -19495,44, -11963,86, 175,06, -18792,45, -17181,16, 0,00, 0,00, 0,00
133, -23967,93, -21004,67, -8297,44, -19496,29, -11975,86, 53,67, -18783,71, -17194,91, 0,00, 0,00, 0,00
134, -23958,14, -20996,47, -8553,61, -19490,72, -11983,71, -171,86, -18789,46, -17221,35, 0,00, 0,00, 0,00
135, -23956,38, -20983,06, -8551,38, -19488,11, -11965,04, -202,26, -18772,36, -17204,05, 0,00, 0,00, 0,00
136, -23971,71, -20988,22, -8293,97, -19496,67, -11947,36, -0,31, -18759,42, -17172,89, -0,06, 0,96, 0,27
137, -23982,71, -21000,56, -8151,81, -19499,91, -11956,60, 127,67, -18772,09, -17170,01, 0,00, 0,00, 0,00
138, -23967,24, -20991,82, -8321,93, -19501,47, -11974,70, -4,34, -18790,06, -17200,61, 0,00, 0,00, 0,00
139, -23960,33, -20983,19, -8586,38, -19503,44, -11984,60, -225,77, -18791,80, -17244,15, 0,00, 0,00, 0,00
140, -23962,10, -20969,15, -8561,75, -19491,93, -11956,98, -214,51, -18763,86, -17188,29, 0,00, 0,00, 0,00
141, -23970,17, -20968,95, -8297,26, -19487,05, -11937,22, 9,23, -18745,20, -17145,82, 0,00, 0,00, 0,00
142, -23976,89, -20977,80, -8137,85, -19504,73, -11947,48, 162,70, -18763,48, -17174,90, 0,00, 0,00, 0,00
143, -23958,59, -20964,53, -8314,98, -19509,74, -11970,83, 28,01, -18810,24, -17218,89, 0,00, 0,00, 0,00
144, -23947,90, -20951,16, -8562,60, -19511,71, -11978,10, -171,95, -18813,42, -17247,37, 0,00, 0,00, 0,00
145, -23944,35, -20935,52, -8554,95, -19505,12, -11954,94, -177,18, -18786,84, -17228,34, 0,00, 0,00, 0,00
146, -23962,07, -20941,71, -8288,16, -19506,12, -11933,80, 48,30, -18767,22, -17200,58, -0,07, 0,97, 0,25
147, -23967,46, -20946,06, -8130,45, -19516,09, -11938,56, 200,92, -18770,97, -17179,04, 0,00, 0,00, 0,00
148, -23954,54, -20937,37, -8310,40, -19519,69, -11966,36, 63,90, -18793,55, -17197,90, 0,00, 0,00, 0,00
149, -23944,35, -20923,89, -8570,91, -19514,75, -11980,85, -152,68, -18804,66, -17236,30, 0,00, 0,00, 0,00
150, -23942,49, -20908,69, -8565,43, -19495,10, -11966,77, -171,57, -18812,03, -17234,80, 0,00, 0,00, 0,00
151, -23956,84, -20913,56, -8288,12, -19496,55, -11941,46, 49,89, -18784,00, -17181,74, 0,00, 0,00, 0,00
152, -23953,13, -20912,89, -8142,58, -19503,37, -11939,45, 173,07, -18755,33, -17167,99, 0,00, 0,00, 0,00
153, -23943,43, -20910,37, -8304,81, -19495,97, -11953,87, 38,85, -18749,13, -17184,31, 0,00, 0,00, 0,00
154, -23936,04, -20900,78, -8554,91, -19487,44, -11961,65, -177,67, -18754,88, -17198,48, 0,00, 0,00, 0,00
155, -23939,14, -20892,42, -8547,26, -19477,96, -11946,00, -202,98, -18750,99, -17186,41, 0,00, 0,00, 0,00
156, -23957,25, -20906,44, -8288,92, -19492,53, -11935,52, -4,67, -18758,41, -17169,63, -0,10, 0,97, 0,24
157, -23960,11, -20912,60, -8152,15, -19491,21, -11946,74, 109,93, -18782,48, -17191,51, 0,00, 0,00, 0,00
158, -23948,31, -20907,64, -8313,64, -19495,95, -11965,78, -27,72, -18794,26, -17234,13, 0,00, 0,00, 0,00
159, -23940,84, -20902,66, -8563,78, -19496,33, -11968,11, -247,01, -18773,59, -17226,69, 0,00, 0,00, 0,00
160, -23941,89, -20894,77, -8545,38, -19469,31, -11950,32, -261,67, -18751,15, -17218,55, 0,00, 0,00, 0,00
161, -23951,17, -20899,01, -8278,91, -19472,71, -11933,91, -52,08, -18751,15, -17174,92, 0,00, 0,00, 0,00
162, -23954,74, -20905,94, -8143,88, -19493,92, -11945,64, 62,88, -18767,60, -17184,89, 0,00, 0,00, 0,00
163, -23944,98, -20906,08, -8315,88, -19491,53, -11962,34, -78,19, -18773,79, -17209,50, 0,00, 0,00, 0,00
164, -23934,07, -20900,69, -8554,06, -19476,24, -11968,13, -273,83, -18780,03, -17222,87, 0,00, 0,00, 0,00
165, -23932,86, -20892,80, -8548,60, -19466,11, -11956,04, -288,78, -18785,54, -17214,49, -0,08, 0,99, 0,25
166, -23943,57, -20897,36, -8289,28, -19466,54, -11931,76, -75,15, -18749,96, -17183,37, 0,00, 0,00, 0,00
167, -23945,94, -20906,35, -8143,59, -19472,04, -11935,32, 67,10, -18750,32, -17175,46, 0,00, 0,00, 0,00
168, -23938,05, -20909,77, -8312,10, -19476,13, -11956,66, -57,22, -18771,51, -17200,56, 0,00, 0,00, 0,00
169, -23924,17, -20898,81, -8564,99, -19463,76, -11962,41, -260,58, -18780,23, -17208,63, 0,00, 0,00, 0,00
170, -23919,94, -20888,60, -8552,47, -19450,13, -11943,36, -258,01, -18763,57, -17193,45, 0,00, 0,00, 0,00
171, -23929,98, -20894,61, -8275,26, -19449,55, -11921,95, -18,15, -18737,89, -17171,66, 0,00, 0,00, 0,00
172, -23937,13, -20908,25, -8132,88, -19457,62, -11932,37, 127,76, -18743,28, -17168,29, 0,00, 0,00, 0,00
173, -23926,00, -20909,54, -8297,10, -19454,80, -11949,33, 18,69, -18762,28, -17188,92, 0,00, 0,00, 0,00
174, -23915,05, -20899,60, -8548,74, -19452,81, -11958,00, -174,21, -18782,66, -17218,76, 0,00, 0,00, 0,00
175, -23918,76, -20894,34, -8544,56, -19448,14, -11940,73, -176,65, -18772,34, -17217,82, -0,06, 0,97, 0,26
176, -23928,66, -20899,82, -8281,10, -19448,97, -11921,55, 46,60, -18756,26, -17196,36, 0,00, 0,00, 0,00
177, -23935,07, -20912,27, -8122,76, -19447,89, -11923,14, 205,05, -18743,26, -17167,55, 0,00, 0,00, 0,00
178, -23928,12, -20917,46, -8295,83, -19455,92, -11949,94, 80,44, -18768,22, -17183,73, 0,00, 0,00, 0,00
179, -23916,05, -20911,24, -8557,16, -19452,86, -11958,99, -134,92, -18771,11, -17215,51, 0,00, 0,00, 0,00
180, -23918,47, -20907,13, -8535,77, -19455,88, -11945,80, -132,08, -18764,91, -17205,17, 0,00, 0,00, 0,00
181, -23931,59, -20914,79, -8268,94, -19457,77, -11926,62, 88,67, -18748,53, -17177,63, 0,00, 0,00, 0,00
182, -23936,13, -20925,01, -8127,52, -19457,80, -11935,90, 219,11, -18765,38, -17183,15, 0,00, 0,00, 0,00
183, -23927,99, -20924,45, -8312,88, -19467,59, -11962,16, 69,07, -18791,51, -17226,62, 0,00, 0,00, 0,00
184, -23924,28, -20918,04, -8567,45, -19468,68, -11976,91, -145,22, -18811,07, -17250,49, 0,00, 0,00, 0,00
185, -23924,66, -20905,61, -8568,45, -19460,19, -11964,84, -169,27, -18810,02, -17228,90, -0,05, 0,95, 0,25
186, -23936,68, -20906,84, -8318,56, -19460,41, -11938,98, 29,08, -18762,54, -17214,71, 0,00, 0,00, 0,00
187, -23951,99, -20923,47, -8159,44, -19474,52, -11943,05, 176,87, -18754,16, -17190,84, 0,00, 0,00, 0,00
188, -23942,83, -20920,83, -8317,58, -19480,15, -11968,06, 55,68, -18782,21, -17207,47, 0,00, 0,00, 0,00
189, -23932,88, -20904,85, -8581,13, -19480,66, -11981,90, -166,23, -18788,21, -17248,51, 0,00, 0,00, 0,00
190, -23934,27, -20893,61, -8575,25, -19454,11, -11967,03, -180,94, -18773,36, -17237,20, 0,00, 0,00, 0,00
191, -23947,90, -20898,34, -8311,67, -19452,30, -11941,67, 34,94, -18754,79, -17188,67, 0,00, 0,00, 0,00
192, -23964,27, -20919,89, -8151,44, -19471,48, -11949,73, 182,57, -18776,61, -17173,56, 0,00, 0,00, 0,00
193, -23955,12, -20916,25, -8320,26, -19462,65, -11971,33, 52,48, -18794,15, -17198,97, 0,00, 0,00, 0,00
194, -23944,24, -20904,40, -8570,80, -19456,59, -11971,84, -157,40, -18776,78, -17214,58, 0,00, 0,00, 0,00
195, -23948,26, -20897,23, -8569,64, -19453,66, -11957,45, -179,13, -18758,28, -17216,86, -0,07, 0,97, 0,24
196, -23966,10, -20903,11, -8317,02, -19466,74, -11947,54, 21,88, -18768,89, -17213,86, 0,00, 0,00, 0,00
197, -23971,04, -20906,14, -8173,85, -19471,95, -11947,14, 154,88, -18770,41, -17187,98, 0,00, 0,00, 0,00
198, -23972,27, -20913,79, -8322,02, -19477,89, -11964,93, 48,15, -18774,68, -17187,89, 0,00, 0,00, 0,00
199, -23966,46, -20907,60, -8570,17, -19473,69, -11972,40, -156,69, -18777,74, -17209,46, 0,00, 0,00, 0,00
200, -23971,33, -20904,96, -8559,62, -19471,97, -11956,06, -167,37, -18761,32, -17211,60, 0,00, 0,00, 0,00
201, -23983,11, -20910,28, -8309,06, -19483,54, -11950,90, 31,92, -18796,52, -17196,36, 0,00, 0,00, 0,00
202, -23985,61, -20917,41, -8165,18, -19493,56, -11957,96, 164,22, -18800,37, -17176,49, 0,00, 0,00, 0,00
203, -23979,76, -20921,39, -8335,17, -19505,90, -11975,77, 31,92, -18765,38, -17204,45, 0,00, 0,00, 0,00
204, -23965,65, -20910,08, -8593,66, -19497,83, -11981,74, -186,57, -18769,41, -17231,56, 0,00, 0,00, 0,00
205, -23967,55, -20903,78, -8586,42, -19494,77, -11968,60, -205,70, -18764,74, -17225,60, -0,08, 0,97, 0,24
206, -23976,60, -20904,96, -8314,31, -19501,07, -11952,86, 15,56, -18770,30, -17205,54, 0,00, 0,00, 0,00
207, -23975,17, -20909,36, -8158,21, -19503,64, -11953,73, 159,14, -18777,57, -17197,43, 0,00, 0,00, 0,00
208, -23971,24, -20915,96, -8321,71, -19507,91, -11978,28, 31,54, -18797,62, -17228,52, 0,00, 0,00, 0,00
209, -23956,00, -20904,33, -8591,99, -19505,94, -11989,81, -198,64, -18819,59, -17251,54, 0,00, 0,00, 0,00
210, -23959,08, -20900,54, -8571,94, -19498,63, -11966,30, -204,00, -18781,07, -17230,20, 0,00, 0,00, 0,00
211, -23975,55, -20910,68, -8295,34, -19503,82, -11945,93, 24,43, -18756,89, -17174,95, 0,00, 0,00, 0,00
212, -23977,56, -20915,26, -8143,50, -19513,81, -11948,44, 163,82, -18762,61, -17156,28, 0,00, 0,00, 0,00
213, -23965,54, -20912,40, -8313,66, -19515,51, -11970,59, 29,68, -18782,39, -17201,14, 0,00, 0,00, 0,00
214, -23953,74, -20903,71, -8573,93, -19509,88, -11980,02, -192,49, -18794,44, -17250,18, 0,00, 0,00, 0,00
215, -23959,55, -20904,76, -8552,54, -19503,48, -11961,09, -193,21, -18783,22, -17215,07, -0,08, 0,96, 0,23
216, -23970,55, -20913,43, -8295,94, -19501,23, -11940,28, 16,63, -18769,85, -17160,69, 0,00, 0,00, 0,00
217, -23976,78, -20929,55, -8140,15, -19515,35, -11943,86, 163,03, -18768,69, -17147,45, 0,00, 0,00, 0,00
218, -23962,99, -20927,09, -8318,58, -19519,31, -11967,62, 26,20, -18792,88, -17189,59, 0,00, 0,00, 0,00
219, -23951,75, -20916,63, -8571,49, -19511,78, -11968,96, -180,92, -18778,62, -17192,69, 0,00, 0,00, 0,00
220, -23953,92, -20909,59, -8558,53, -19502,61, -11955,32, -189,63, -18767,13, -17182,14, 0,00, 0,00, 0,00
221, -23967,82, -20916,63, -8294,98, -19506,05, -11939,52, 28,90, -18757,58, -17162,38, 0,00, 0,00, 0,00
222, -23979,82, -20934,11, -8149,42, -19524,34, -11951,61, 165,94, -18767,57, -17178,12, 0,00, 0,00, 0,00
223, -23967,15, -20931,45, -8323,75, -19519,13, -11969,83, 29,01, -18783,00, -17212,70, 0,00, 0,00, 0,00
224, -23954,23, -20922,60, -8584,14, -19511,69, -11978,30, -187,84, -18791,31, -17241,20, 0,00, 0,00, 0,00
225, -23954,32, -20915,15, -8561,95, -19507,24, -11961,18, -187,78, -18774,50, -17217,46, -0,08, 0,97, 0,24
226, -23969,63, -20925,52, -8287,96, -19504,53, -11943,34, 39,90, -18761,70, -17168,96, 0,00, 0,00, 0,00
227, -23976,63, -20939,25, -8154,77, -19533,28, -11962,14, 163,48, -18787,02, -17186,50, 0,00, 0,00, 0,00
228, -23969,83, -20942,82, -8326,40, -19538,42, -11984,80, 30,15, -18806,36, -17223,11, 0,00, 0,00, 0,00
229, -23960,33, -20936,30, -8553,34, -19510,86, -11986,70, -153,69, -18807,45, -17232,57, 0,00, 0,00, 0,00
230, -23959,08, -20928,52, -8538,17, -19502,68, -11971,19, -159,84, -18798,08, -17220,92, 0,00, 0,00, 0,00
231, -23973,83, -20937,35, -8274,10, -19504,67, -11954,74, 58,23, -18786,66, -17185,56, 0,00, 0,00, 0,00
232, -23977,27, -20946,24, -8137,69, -19513,38, -11963,53, 186,75, -18791,94, -17173,13, 0,00, 0,00, 0,00
233, -23966,19, -20945,46, -8315,21, -19520,13, -11985,14, 48,15, -18812,39, -17203,18, 0,00, 0,00, 0,00
234, -23954,52, -20936,03, -8573,84, -19509,90, -11991,44, -172,40, -18817,53, -17233,73, 0,00, 0,00, 0,00
235, -23956,87, -20927,98, -8556,54, -19493,45, -11970,59, -181,32, -18801,21, -17215,56, -0,06, 0,97, 0,24
236, -23966,25, -20932,14, -8288,45, -19488,17, -11945,98, 40,41, -18782,88, -17164,75, 0,00, 0,00, 0,00
237, -23974,64, -20946,33, -8131,88, -19500,87, -11951,12, 187,64, -18774,37, -17167,12, 0,00, 0,00, 0,00
238, -23961,87, -20943,49, -8319,18, -19503,51, -11975,48, 41,10, -18789,57, -17216,90, 0,00, 0,00, 0,00
239, -23947,57, -20928,94, -8570,24, -19488,89, -11974,48, -164,89, -18784,54, -17222,15, 0,00, 0,00, 0,00
240, -23955,71, -20928,03, -8533,02, -19491,75, -11954,72, -149,00, -18763,37, -17185,52, 0,00, 0,00, 0,00
241, -23966,93, -20933,39, -8272,78, -19496,02, -11938,60, 65,29, -18754,07, -17152,06, 0,00, 0,00, 0,00
242, -23975,64, -20948,99, -8138,56, -19518,64, -11955,72, 187,62, -18783,22, -17167,08, 0,00, 0,00, 0,00
243, -23967,60, -20949,44, -8304,25, -19523,87, -11977,27, 58,58, -18799,58, -17200,76, 0,00, 0,00, 0,00
244, -23958,48, -20942,15, -8545,38, -19491,03, -11978,59, -136,17, -18774,71, -17206,86, -0,06, 0,98, 0,25
245, -23959,59, -20933,62, -8528,46, -19490,09, -11961,56, -140,79, -18755,73, -17193,43, 0,00, 0,00, 0,00
246, -23972,40, -20940,28, -8267,06, -19497,81, -11948,10, 71,28, -18753,94, -17167,68, 0,00, 0,00, 0,00
247, -23970,88, -20946,98, -8127,07, -19507,08, -11955,30, 202,44, -18768,98, -17184,06, 0,00, 0,00, 0,00
248, -23953,34, -20940,68, -8309,98, -19506,52, -11972,87, 59,12, -18791,76, -17203,56, 0,00, 0,00, 0,00
249, -23946,63, -20937,30, -8554,06, -19506,34, -11983,71, -141,40, -18810,87, -17220,01, 0,00, 0,00, 0,00
250, -23946,16, -20928,25, -8535,44, -19499,46, -11968,58, -143,81, -18806,51, -17205,75, 0,00, 0,00, 0,00
251, -23960,69, -20938,06, -8263,39, -19513,45, -11949,11, 81,45, -18777,03, -17177,90, 0,00, 0,00, 0,00
252, -23964,06, -20946,36, -8118,20, -19514,75, -11953,06, 216,39, -18767,51, -17178,12, 0,00, 0,00, 0,00
253, -23955,97, -20947,83, -8298,02, -19527,98, -11979,15, 75,15, -18787,00, -17221,66, 0,00, 0,00, 0,00
254, -23942,43, -20935,74, -8556,36, -19522,06, -11988,33, -140,06, -18800,83, -17246,27, -0,07, 0,97, 0,25
255, -23939,34, -20925,19, -8532,91, -19491,95, -11965,20, -136,17, -18781,25, -17207,40, 0,00, 0,00, 0,00
0, -23943,84, -20924,47, -8272,74, -19486,32, -11940,08, 78,25, -18753,16, -17149,80, 0,00, 0,00, 0,00
1, -23949,02, -20934,13, -8125,10, -19499,28, -11951,81, 211,18, -18765,65, -17154,43, 0,00, 0,00, 0,00
2, -23934,89, -20927,96, -8294,89, -19494,01, -11974,97, 75,19, -18788,18, -17184,51, 0,00, 0,00, 0,00
3, -23921,69, -20915,00, -8553,90, -19488,80, -11987,53, -147,14, -18796,50, -17219,80, 0,00, 0,00, 0,00
4, -23922,42, -20906,86, -8535,57, -19482,81, -11969,56, -153,13, -18775,84, -17213,55, 0,00, 0,00, 0,00
5, -23935,41, -20911,98, -8268,18, -19485,76, -11950,34, 60,86, -18760,09, -17192,18, 0,00, 0,00, 0,00
6, -23949,25, -20927,51, -8119,38, -19506,95, -11960,13, 197,57, -18769,41, -17182,05, 0,00, 0,00, 0,00
7, -23940,30, -20926,80, -8289,08, -19501,83, -11977,50, 66,21, -18785,75, -17177,85, 0,00, 0,00, 0,00
8, -23932,82, -20922,84, -8535,95, -19499,10, -11986,41, -142,29, -18793,50, -17187,87, -0,08, 0,97, 0,24
9, -23935,68, -20916,09, -8526,12, -19487,01, -11973,85, -158,99, -18796,61, -17191,42, 0,00, 0,00, 0,00
10, -23948,15, -20919,73, -8270,97, -19492,08, -11958,72, 42,31, -18790,55, -17172,26, 0,00, 0,00, 0,00
11, -23955,30, -20928,83, -8130,31, -19512,45, -11957,76, 164,64, -18757,49, -17176,24, 0,00, 0,00, 0,00
12, -23946,70, -20927,42, -8306,35, -19513,79, -11980,38, 22,13, -18773,21, -17219,69, 0,00, 0,00, 0,00
13, -23943,68, -20924,54, -8548,78, -19510,19, -11987,06, -176,60, -18781,79, -17228,30, 0,00, 0,00, 0,00
14, -23954,27, -20927,29, -8515,66, -19512,45, -11971,84, -161,20, -18777,81, -17194,32, 0,00, 0,00, 0,00
15, -23964,40, -20934,24, -8264,09, -19502,95, -11956,15, 44,77, -18762,14, -17176,11, 0,00, 0,00, 0,00
16, -23972,67, -20944,90, -8137,85, -19519,60, -11969,34, 161,74, -18772,67, -17189,12, 0,00, 0,00, 0,00
17, -23965,05, -20944,41, -8321,24, -19528,49, -11993,34, 17,14, -18789,39, -17217,15, 0,00, 0,00, 0,00
18, -23956,13, -20935,67, -8562,89, -19525,10, -12000,81, -182,70, -18795,04, -17227,56, -0,08, 0,98, 0,24
19, -23958,39, -20929,39, -8540,38, -19513,79, -11986,61, -181,09, -18791,78, -17209,66, 0,00, 0,00, 0,00
20, -23971,33, -20936,30, -8286,66, -19514,90, -11972,35, 22,15, -18798,02, -17203,96, 0,00, 0,00, 0,00
21, -23974,01, -20941,71, -8145,58, -19527,60, -11979,57, 148,97, -18801,08, -17207,40, 0,00, 0,00, 0,00
22, -23964,24, -20937,71, -8313,49, -19537,59, -11998,73, 16,81, -18797,28, -17204,07, 0,00, 0,00, 0,00
23, -23957,81, -20930,84, -8541,70, -19512,22, -12003,91, -168,09, -18795,83, -17212,27, 0,00, 0,00, 0,00
24, -23957,54, -20920,16, -8529,13, -19492,78, -11989,52, -175,37, -18788,61, -17209,99, 0,00, 0,00, 0,00
25, -23972,96, -20926,96, -8258,28, -19497,56, -11965,42, 50,31, -18762,97, -17183,69, 0,00, 0,00, 0,00
26, -23978,41, -20938,20, -8117,50, -19505,70, -11974,77, 181,63, -18787,29, -17198,44, 0,00, 0,00, 0,00
27, -23965,79, -20934,55, -8301,75, -19505,72, -11995,09, 36,12, -18799,54, -17233,22, 0,00, 0,00, 0,00
28, -23954,03, -20922,46, -8550,08, -19495,46, -11994,93, -170,57, -18788,16, -17233,91, -0,07, 0,97, 0,24
29, -23963,88, -20925,75, -8521,76, -19494,03, -11973,52, -166,10, -18759,44, -17221,24, 0,00, 0,00, 0,00
30, -23973,85, -20931,04, -8257,11, -19492,78, -11949,51, 54,27, -18739,21, -17155,61, 0,00, 0,00, 0,00
31, -23984,76, -20946,76, -8111,81, -19508,06, -11957,20, 192,72, -18749,58, -17154,81, 0,00, 0,00, 0,00
32, -23975,51, -20949,02, -8292,81, -19513,36, -11983,46, 51,86, -18774,10, -17186,68, 0,00, 0,00, 0,00
33, -23964,47, -20941,06, -8560,67, -19504,47, -11993,88, -174,70, -18785,54, -17207,31, 0,00, 0,00, 0,00
34, -23972,45, -20940,63, -8538,39, -19499,13, -11970,54, -173,16, -18757,27, -17190,57, 0,00, 0,00, 0,00
35, -23989,48, -20951,52, -8268,65, -19507,39, -11951,81, 49,49, -18738,96, -17169,22, 0,00, 0,00, 0,00
36, -23993,50, -20959,30, -8133,98, -19527,91, -11963,28, 173,49, -18755,95, -17178,90, 0,00, 0,00, 0,00
37, -23984,00, -20958,25, -8303,49, -19523,76, -11985,09, 41,48, -18777,19, -17205,32, 0,00, 0,00, 0,00
38, -23973,97, -20949,84, -8547,89, -19510,32, -11992,31, -162,88, -18789,43, -17230,38, -0,06, 0,98, 0,24
39, -23977,07, -20943,56, -8538,95, -19506,52, -11981,23, -177,47, -18790,11, -17234,38, 0,00, 0,00, 0,00
40, -23988,21, -20946,76, -8268,67, -19513,36, -11966,14, 44,68, -18780,38, -17202,93, 0,00, 0,00, 0,00
41, -23985,70, -20950,92, -8131,83, -19507,37, -11976,38, 170,54, -18801,97, -17193,21, 0,00, 0,00, 0,00
42, -23974,01, -20948,97, -8312,88, -19516,89, -11999,00, 24,54, -18816,75, -17229,08, 0,00, 0,00, 0,00
43, -23960,78, -20936,88, -8548,94, -19505,76, -11996,36, -173,70, -18794,84, -17242,34, 0,00, 0,00, 0,00
44, -23962,46, -20930,46, -8513,22, -19483,88, -11975,75, -160,95, -18769,90, -17201,66, 0,00, 0,00, 0,00
45, -23971,82, -20935,18, -8254,52, -19488,80, -11960,42, 48,93, -18764,60, -17185,52, 0,00, 0,00, 0,00
46, -23972,87, -20943,38, -8115,00, -19495,08, -11969,11, 176,06, -18772,18, -17193,72, 0,00, 0,00, 0,00
47, -23958,48, -20941,42, -8293,46, -19488,04, -11989,27, 33,89, -18795,54, -17236,93, 0,00, 0,00, 0,00
48, -23946,70, -20931,71, -8520,95, -19477,40, -11986,57, -151,95, -18783,49, -17248,28, -0,06, 0,97, 0,25
49, -23949,29, -20926,57, -8501,24, -19469,96, -11966,81, -149,64, -18761,03, -17212,05, 0,00, 0,00, 0,00
50, -23964,27, -20935,85, -8238,67, -19476,39, -11950,70, 68,37, -18753,36, -17183,98, 0,00, 0,00, 0,00
51, -23968,74, -20946,49, -8106,91, -19489,69, -11965,69, 192,76, -18782,84, -17203,38, 0,00, 0,00, 0,00
52, -23960,87, -20946,02, -8282,01, -19493,67, -11987,44, 60,46, -18795,36, -17241,22, 0,00, 0,00, 0,00
53, -23951,05, -20938,78, -8532,04, -19483,81, -11988,89, -141,98, -18791,40, -17242,40, 0,00, 0,00, 0,00
54, -23961,56, -20941,26, -8512,35, -19477,80, -11967,82, -139,23, -18770,82, -17211,54, 0,00, 0,00, 0,00
55, -23978,75, -20953,46, -8239,37, -19485,31, -11947,72, 87,86, -18745,78, -17169,29, 0,00, 0,00, 0,00
56, -23985,75, -20966,65, -8098,91, -19500,73, -11957,49, 220,97, -18757,20, -17161,91, 0,00, 0,00, 0,00
57, -23977,07, -20967,68, -8286,89, -19506,01, -11980,33, 77,85, -18776,27, -17189,65, -0,06, 0,97, 0,25
58, -23973,14, -20963,61, -8529,56, -19498,30, -11987,73, -117,61, -18782,15, -17214,02, 0,00, 0,00, 0,00
59, -23979,42, -20959,90, -8514,61, -19494,50, -11977,38, -123,31, -18782,64, -17209,30, 0,00, 0,00, 0,00
60, -23999,63, -20972,08, -8251,77, -19503,97, -11966,88, 91,82, -18773,36, -17181,61, 0,00, 0,00, 0,00
61, -24004,34, -20980,15, -8113,64, -19520,27, -11978,01, 218,40, -18772,43, -17176,60, 0,00, 0,00, 0,00
62, -23996,99, -20980,71, -8295,87, -19527,13, -12002,77, 69,45, -18788,07, -17210,28, 0,00, 0,00, 0,00
63, -23984,81, -20967,43, -8556,61, -19518,28, -12010,84, -155,03, -18797,77, -17231,43, 0,00, 0,00, 0,00
64, -23984,00, -20958,16, -8522,27, -19504,38, -11984,80, -148,39, -18760,09, -17206,91, 0,00, 0,00, 0,00
65, -23986,15, -20954,16, -8272,42, -19498,14, -11969,27, 44,59, -18753,61, -17199,38, 0,00, 0,00, 0,00
66, -23987,58, -20960,59, -8136,06, -19509,14, -11979,13, 160,57, -18773,54, -17221,68, 0,00, 0,00, 0,00
67, -23972,94, -20955,03, -8305,75, -19505,27, -11996,43, 21,93, -18795,09, -17227,74, -0,07, 0,97, 0,24
68, -23963,10, -20946,60, -8545,05, -19494,27, -12001,39, -179,28, -18802,09, -17230,60, 0,00, 0,00, 0,00
69, -23964,33, -20937,44, -8515,95, -19484,73, -11983,11, -178,55, -18783,09, -17232,35, 0,00, 0,00, 0,00
70, -23971,62, -20937,48, -8252,62, -19480,82, -11964,02, 29,48, -18773,47, -17208,25, 0,00, 0,00, 0,00
71, -23970,88, -20941,51, -8121,69, -19485,00, -11964,24, 146,36, -18767,35, -17206,35, 0,00, 0,00, 0,00
72, -23968,02, -20948,54, -8288,88, -19493,11, -11987,60, 16,07, -18785,72, -17246,29, 0,00, 0,00, 0,00
73, -23957,96, -20937,06, -8535,26, -19480,26, -11990,73, -184,85, -18788,45, -17246,54, 0,00, 0,00, 0,00
74, -23962,99, -20932,79, -8498,27, -19471,30, -11968,22, -169,74, -18765,18, -17217,03, 0,00, 0,00, 0,00
75, -23973,74, -20937,17, -8241,11, -19475,46, -11952,28, 39,23, -18749,29, -17201,59, 0,00, 0,00, 0,00
76, -23980,61, -20945,80, -8095,78, -19487,79, -11961,69, 177,36, -18765,12, -17201,32, 0,00, 0,00, 0,00
77, -23974,68, -20948,70, -8269,68, -19493,47, -11982,61, 46,20, -18787,36, -17228,75, -0,07, 0,97, 0,24
78, -23966,72, -20941,86, -8516,42, -19485,40, -11984,04, -155,37, -18778,73, -17235,12, 0,00, 0,00, 0,00
79, -23967,39, -20934,96, -8491,41, -19472,48, -11955,84, -149,24, -18739,50, -17204,54, 0,00, 0,00, 0,00
80, -23981,95, -20943,27, -8230,78, -19473,76, -11936,95, 68,75, -18724,30, -17171,71, 0,00, 0,00, 0,00
81, -23989,34, -20957,58, -8098,53, -19488,82, -11949,04, 196,65, -18738,90, -17176,00, 0,00, 0,00, 0,00
82, -23978,48, -20956,57, -8285,30, -19489,92, -11968,91, 49,82, -18756,67, -17179,01, 0,00, 0,00, 0,00
83, -23969,47, -20948,21, -8528,55, -19486,45, -11974,34, -155,10, -18764,94, -17199,31, 0,00, 0,00, 0,00
84, -23972,22, -20943,38, -8510,14, -19477,96, -11957,78, -161,11, -18743,46, -17198,77, 0,00, 0,00, 0,00
85, -23984,14, -20948,32, -8253,09, -19480,15, -11940,55, 44,28, -18725,82, -17173,61, 0,00, 0,00, 0,00
86, -23992,59, -20960,24, -8097,57, -19493,80, -11954,27, 188,27, -18741,02, -17172,64, 0,00, 0,00, 0,00
87, -23978,97, -20956,68, -8272,49, -19498,30, -11982,81, 51,77, -18763,33, -17220,37, -0,07, 0,98, 0,24
88, -23965,90, -20943,29, -8527,28, -19488,96, -11994,77, -166,88, -18777,34, -17233,73, 0,00, 0,00, 0,00
89, -23967,24, -20936,41, -8502,85, -19478,47, -11979,13, -171,19, -18766,14, -17216,97, 0,00, 0,00, 0,00
90, -23982,88, -20947,56, -8238,05, -19485,27, -11969,96, 41,10, -18758,99, -17199,00, 0,00, 0,00, 0,00
91, -23981,23, -20950,27, -8105,35, -19488,87, -11979,69, 161,02, -18778,75, -17199,69, 0,00, 0,00, 0,00
92, -23965,25, -20942,91, -8283,04, -19486,52, -11998,95, 16,45, -18793,93, -17232,84, 0,00, 0,00, 0,00
93, -23954,16, -20931,38, -8528,13, -19476,91, -12001,97, -189,23, -18792,21, -17257,98, 0,00, 0,00, 0,00
94, -23957,36, -20926,06, -8511,75, -19466,85, -11981,34, -193,39, -18773,43, -17240,26, 0,00, 0,00, 0,00
95, -23967,73, -20929,53, -8246,36, -19466,83, -11959,57, 22,89, -18765,29, -17206,86, 0,00, 0,00, 0,00
96, -23972,40, -20938,31, -8104,88, -19475,01, -11966,45, 154,63, -18787,22, -17199,26, 0,00, 0,00, 0,00
97, -23963,06, -20937,71, -8276,63, -19475,99, -11980,22, 25,41, -18778,75, -17217,82, -0,07, 0,97, 0,24
98, -23955,44, -20931,69, -8526,85, -19470,13, -11984,16, -181,38, -18773,50, -17249,62, 0,00, 0,00, 0,00
99, -23958,37, -20926,80, -8491,92, -19461,60, -11957,89, -165,78, -18752,87, -17216,95, 0,00, 0,00, 0,00
100, -23964,80, -20925,63, -8227,43, -19461,02, -11934,85, 51,01, -18740,75, -17192,45, 0,00, 0,00, 0,00
101, -23973,79, -20938,06, -8079,02, -19473,04, -11942,92, 190,53, -18749,25, -17187,37, 0,00, 0,00, 0,00
102, -23961,14, -20934,93, -8258,46, -19473,78, -11963,75, 53,17, -18775,33, -17224,07, 0,00, 0,00, 0,00
103, -23954,61, -20928,23, -8504,88, -19466,89, -11966,34, -147,07, -18777,90, -17229,86, 0,00, 0,00, 0,00
104, -23959,44, -20924,61, -8479,27, -19460,52, -11944,71, -143,90, -18747,73, -17196,72, 0,00, 0,00, 0,00
105, -23973,45, -20933,21, -8219,21, -19460,86, -11922,93, 69,16, -18721,69, -17164,87, 0,00, 0,00, 0,00
106, -23980,78, -20944,19, -8080,69, -19472,04, -11928,03, 199,67, -18724,77, -17153,46, 0,00, 0,00, 0,00
107, -23970,61, -20942,91, -8275,93, -19472,30, -11952,57, 45,71, -18760,40, -17185,00, -0,07, 0,97, 0,24
108, -23958,68, -20932,27, -8524,26, -19461,22, -11952,80, -161,63, -18759,42, -17203,18, 0,00, 0,00, 0,00
109, -23968,33, -20932,77, -8497,04, -19461,02, -11934,69, -157,71, -18726,22, -17185,52, 0,00, 0,00, 0,00
110, -23978,75, -20938,46, -8239,63, -19465,89, -11921,10, 46,54, -18713,06, -17166,68, 0,00, 0,00, 0,00
111, -23979,91, -20946,06, -8114,20, -19473,60, -11932,61, 155,97, -18723,77, -17182,41, 0,00, 0,00, 0,00
112, -23977,65, -20953,46, -8280,25, -19485,13, -11961,69, 24,10, -18755,06, -17216,05, 0,00, 0,00, 0,00
113, -23964,87, -20939,94, -8525,09, -19479,34, -11975,42, -184,56, -18778,01, -17242,76, 0,00, 0,00, 0,00
114, -23964,69, -20932,05, -8502,51, -19468,39, -11961,11, -187,91, -18770,30, -17236,10, 0,00, 0,00, 0,00
115, -23970,72, -20933,08, -8250,07, -19462,58, -11941,51, 18,95, -18753,31, -17196,52, 0,00, 0,00, 0,00
116, -23974,68, -20940,52, -8095,51, -19473,15, -11948,55, 164,80, -18745,33, -17194,28, 0,00, 0,00, 0,00
117, -23959,66, -20936,56, -8259,17, -19471,25, -11968,26, 42,31, -18751,55, -17218,60, -0,07, 0,97, 0,25
118, -23949,98, -20928,96, -8512,64, -19465,04, -11979,89, -165,96, -18762,41, -17233,22, 0,00, 0,00, 0,00
119, -23951,05, -20920,43, -8495,79, -19455,36, -11964,15, -169,09, -18750,32, -17209,43, 0,00, 0,00, 0,00
120, -23963,08, -20928,09, -8232,86, -19459,25, -11945,42, 46,36, -18732,75, -17182,50, 0,00, 0,00, 0,00
121, -23970,28, -20940,32, -8089,57, -19474,00, -11956,71, 182,66, -18749,74, -17194,79, 0,00, 0,00, 0,00
122, -23961,63, -20940,81, -8270,32, -19480,75, -11983,98, 46,02, -18778,42, -17229,55, 0,00, 0,00, 0,00
123, -23945,45, -20925,21, -8515,79, -19466,40, -11981,90, -155,05, -18770,23, -17225,73, 0,00, 0,00, 0,00
124, -23948,91, -20919,18, -8485,55, -19460,93, -11959,88, -149,91, -18742,96, -17206,89, 0,00, 0,00, 0,00
125, -23958,14, -20921,21, -8231,45, -19462,80, -11941,96, 52,39, -18728,55, -17177,85, 0,00, 0,00, 0,00
126, -23967,24, -20933,91, -8085,92, -19477,29, -11949,73, 186,26, -18740,10, -17189,83, 0,00, 0,00, 0,00
127, -23961,70, -20938,49, -8270,30, -19486,07, -11975,33, 39,25, -18762,93, -17228,39, -0,06, 0,98, 0,25
128, -23955,06, -20932,88, -8526,07, -19478,34, -11977,72, -176,51, -18759,10, -17224,30, 0,00, 0,00, 0,00
129, -23965,36, -20935,29, -8486,58, -19476,57, -11953,65, -161,13, -18741,76, -17217,30, 0,00, 0,00, 0,00
130, -23972,11, -20937,33, -8235,81, -19474,27, -11927,27, 40,10, -18724,97, -17176,85, 0,00, 0,00, 0,00
131, -23974,66, -20946,27, -8098,39, -19479,66, -11928,57, 164,40, -18724,75, -17163,48, 0,00, 0,00, 0,00
132, -23969,25, -20949,17, -8282,35, -19487,01, -11957,31, 17,48, -18758,88, -17204,18, 0,00, 0,00, 0,00
133, -23960,71, -20942,35, -8540,85, -19480,26, -11966,21, -205,26, -18761,34, -17239,43, 0,00, 0,00, 0,00
134, -23963,84, -20936,86, -8511,90, -19474,02, -11949,20, -204,07, -18743,39, -17236,01, 0,00, 0,00, 0,00
135, -23972,58, -20939,43, -8247,35, -19477,02, -11934,33, 10,75, -18729,46, -17213,95, 0,00, 0,00, 0,00
136, -23973,83, -20945,30, -8116,19, -19488,87, -11955,28, 133,17, -18770,82, -17209,59, -0,06, 0,98, 0,25
137, -23960,69, -20940,43, -8303,00, -19489,25, -11977,45, -12,00, -18785,32, -17217,03, 0,00, 0,00, 0,00
138, -23953,60, -20934,78, -8540,24, -19484,17, -11982,52, -205,66, -18769,88, -17234,07, 0,00, 0,00, 0,00
139, -23950,63, -20922,86, -8521,58, -19471,03, -11966,61, -210,46, -18746,05, -17224,52, 0,00, 0,00, 0,00
140, -23962,77, -20927,69, -8249,11, -19472,64, -11947,48, 7,96, -18718,69, -17204,67, 0,00, 0,00, 0,00
141, -23971,22, -20943,38, -8109,48, -19487,17, -11963,30, 135,38, -18738,36, -17192,98, 0,00, 0,00, 0,00
142, -23962,48, -20943,63, -8300,36, -19492,73, -11992,31, -15,80, -18775,04, -17230,69, 0,00, 0,00, 0,00
143, -23948,71, -20929,86, -8555,15, -19478,34, -11995,11, -229,78, -18781,21, -17252,95, 0,00, 0,00, 0,00
144, -23947,44, -20917,90, -8510,81, -19463,27, -11969,00, -208,59, -18753,22, -17244,44, 0,00, 0,00, 0,00
145, -23960,67, -20926,11, -8240,60, -19465,40, -11947,25, 15,15, -18726,71, -17192,29, 0,00, 0,00, 0,00
146, -23969,21, -20937,86, -8098,98, -19477,24, -11950,87, 151,68, -18735,21, -17159,19, -0,07, 0,98, 0,25
147, -23961,99, -20937,55, -8269,79, -19484,30, -11974,16, 16,74, -18759,21, -17205,32, 0,00, 0,00, 0,00
148, -23950,43, -20927,45, -8517,78, -19475,88, -11979,75, -192,45, -18762,77, -17223,38, 0,00, 0,00, 0,00
149, -23956,64, -20926,02, -8489,80, -19468,53, -11961,40, -188,49, -18742,76, -17202,39, 0,00, 0,00, 0,00
150, -23968,04, -20932,59, -8232,57, -19471,25, -11947,25, 19,58, -18730,31, -17187,35, 0,00, 0,00, 0,00
151, -23969,47, -20938,49, -8101,59, -19479,21, -11954,47, 140,17, -18745,42, -17182,88, 0,00, 0,00, 0,00
152, -23961,03, -20940,23, -8270,23, -19485,36, -11974,25, 8,65, -18763,64, -17208,61, 0,00, 0,00, 0,00
153, -23945,69, -20927,74, -8524,35, -19476,46, -11977,50, -205,12, -18757,96, -17224,05, 0,00, 0,00, 0,00
154, -23950,52, -20925,43, -8500,97, -19474,38, -11957,94, -208,77, -18744,28, -17215,38, 0,00, 0,00, 0,00
155, -23968,33, -20938,49, -8223,92, -19485,94, -11937,69, 16,34, -18735,52, -17190,97, 0,00, 0,00, 0,00
156, -23969,90, -20945,24, -8078,86, -19495,66, -11939,23, 148,82, -18734,87, -17176,96, -0,07, 0,98, 0,25
157, -23954,79, -20940,57, -8257,34, -19499,53, -11960,44, 6,46, -18749,67, -17208,52, 0,00, 0,00, 0,00
158, -23942,85, -20930,62, -8513,98, -19493,83, -11971,04, -210,87, -18757,45, -17247,52, 0,00, 0,00, 0,00
159, -23944,02, -20924,25, -8488,81, -19485,74, -11952,64, -211,54, -18744,22, -17239,59, 0,00, 0,00, 0,00
160, -23947,70, -20921,77, -8225,98, -19482,43, -11931,20, 0,18, -18731,45, -17205,17, 0,00, 0,00, 0,00
161, -23953,47, -20931,02, -8080,85, -19493,22, -11941,55, 134,56, -18744,89, -17197,50, 0,00, 0,00, 0,00
162, -23943,61, -20930,15, -8258,43, -19500,82, -11973,11, -4,58, -18768,63, -17216,39, 0,00, 0,00, 0,00
163, -23933,04, -20919,91, -8512,53, -19495,10, -11984,92, -214,96, -18779,78, -17228,10, 0,00, 0,00, 0,00
164, -23935,50, -20910,95, -8481,84, -19488,69, -11967,44, -207,36, -18756,87, -17223,07, 0,00, 0,00, 0,00
165, -23946,63, -20914,66, -8212,63, -19490,74, -11945,33, 15,04, -18729,00, -17206,55, 0,00, 0,00, 0,00
166, -23947,14, -20920,83, -8095,15, -19500,24, -11959,64, 127,70, -18759,08, -17210,78, -0,08, 0,98, 0,25
167, -23940,84, -20922,48, -8279,35, -19509,25, -11983,24, -11,67, -18775,80, -17239,95, 0,00, 0,00, 0,00
168, -23929,80, -20910,66, -8530,81, -19500,22, -11987,08, -219,14, -18772,02, -17229,55, 0,00, 0,00, 0,00
169, -23933,87, -20902,88, -8496,84, -19490,14, -11964,06, -206,84, -18745,78, -17173,54, 0,00, 0,00, 0,00
170, -23947,23, -20908,74, -8232,53, -19498,54, -11949,67, 9,66, -18740,80, -17154,67, 0,00, 0,00, 0,00
171, -23955,55, -20921,84, -8098,46, -19515,78, -11961,87, 136,86, -18760,04, -17165,24, 0,00, 0,00, 0,00
172, -23948,66, -20923,85, -8266,61, -19522,37, -11984,63, 10,35, -18782,53, -17206,30, 0,00, 0,00, 0,00
173, -23935,19, -20909,61, -8516,82, -19508,80, -11990,62, -193,68, -18789,12, -17225,30, 0,00, 0,00, 0,00
174, -23941,67, -20904,16, -8495,85, -19496,91, -11967,62, -190,03, -18757,11, -17197,74, 0,00, 0,00, 0,00
175, -23949,42, -20904,83, -8239,41, -19493,71, -11945,91, 19,62, -18736,53, -17164,26, 0,00, 0,00, 0,00
176, -23958,25, -20917,19, -8107,78, -19503,88, -11954,47, 140,46, -18742,72, -17166,52, -0,08, 0,97, 0,24
177, -23951,84, -20919,02, -8278,10, -19505,96, -11977,88, 10,44, -18763,15, -17198,66, 0,00, 0,00, 0,00
178, -23938,70, -20904,85, -8531,64, -19490,88, -11984,85, -199,58, -18780,45, -17219,16, 0,00, 0,00, 0,00
179, -23945,22, -20901,88, -8493,15, -19478,90, -11958,05, -182,21, -18748,33, -17200,09, 0,00, 0,00, 0,00
180, -23963,19, -20913,92, -8208,92, -19484,78, -11941,98, 56,51, -18719,72, -17175,68, 0,00, 0,00, 0,00
181, -23961,72, -20917,21, -8077,61, -19489,56, -11953,20, 180,83, -18733,49, -17178,70, 0,00, 0,00, 0,00
182, -23947,77, -20912,22, -8269,52, -19488,51, -11972,87, 28,99, -18746,50, -17199,60, 0,00, 0,00, 0,00
183, -23935,50, -20901,67, -8510,07, -19480,19, -11975,53, -173,47, -18753,02, -17211,00, 0,00, 0,00, 0,00
184, -23941,00, -20897,18, -8480,12, -19473,04, -11958,00, -169,40, -18740,24, -17196,43, 0,00, 0,00, 0,00
185, -23953,04, -20904,56, -8219,47, -19476,17, -11942,00, 37,98, -18732,48, -17175,77, 0,00, 0,00, 0,00
186, -23961,76, -20918,48, -8077,29, -19491,86, -11954,12, 167,28, -18749,29, -17182,93, -0,07, 0,97, 0,24
187, -23954,30, -20919,13, -8252,08, -19500,18, -11982,99, 31,81, -18783,47, -17232,01, 0,00, 0,00, 0,00
188, -23940,42, -20904,98, -8504,62, -19486,45, -11985,85, -177,14, -18783,40, -17243,74, 0,00, 0,00, 0,00
189, -23946,23, -20901,34, -8475,83, -19478,74, -11965,40, -170,41, -18758,75, -17198,75, 0,00, 0,00, 0,00
190, -23961,23, -20913,21, -8219,21, -19486,92, -11955,72, 39,70, -18740,51, -17177,96, 0,00, 0,00, 0,00
191, -23970,32, -20927,87, -8093,43, -19507,44, -11972,02, 156,02, -18743,99, -17209,66, 0,00, 0,00, 0,00
192, -23959,33, -20925,79, -8276,90, -19515,29, -12000,45, 14,24, -18779,22, -17238,71, 0,00, 0,00, 0,00
193, -23944,73, -20909,59, -8520,35, -19491,70, -11994,62, -183,78, -18771,35, -17227,00, 0,00, 0,00, 0,00
194, -23950,29, -20904,33, -8487,99, -19481,98, -11972,80, -174,68, -18746,12, -17199,69, 0,00, 0,00, 0,00
195, -23957,31, -20907,66, -8238,88, -19483,70, -11952,95, 32,48, -18732,13, -17153,69, 0,00, 0,00, 0,00
196, -23964,98, -20923,29, -8112,10, -19497,07, -11960,06, 155,66, -18739,23, -17153,89, -0,07, 0,97, 0,25
197, -23957,98, -20925,84, -8279,20, -19508,36, -11987,22, 29,26, -18765,59, -17196,58, 0,00, 0,00, 0,00
198, -23946,81, -20914,68, -8530,07, -19502,92, -12001,84, -177,92, -18788,18, -17234,11, 0,00, 0,00, 0,00
199, -23949,16, -20909,10, -8501,69, -19490,05, -11980,85, -172,26, -18777,48, -17212,94, 0,00, 0,00, 0,00
200, -23954,59, -20910,64, -8226,56, -19484,69, -11954,36, 53,49, -18745,36, -17167,28, 0,00, 0,00, 0,00
201, -23956,02, -20917,37, -8097,30, -19494,30, -11965,36, 172,31, -18742,29, -17177,05, 0,00, 0,00, 0,00
202, -23946,14, -20917,68, -8271,06, -19500,60, -11993,19, 39,20, -18768,94, -17214,13, 0,00, 0,00, 0,00
203, -23936,66, -20912,49, -8498,54, -19496,22, -12001,57, -146,34, -18773,27, -17220,48, 0,00, 0,00, 0,00
204, -23938,54, -20908,13, -8475,47, -19486,23, -11985,43, -148,21, -18763,19, -17203,38, 0,00, 0,00, 0,00
205, -23950,63, -20913,10, -8210,29, -19485,56, -11962,99, 68,28, -18745,58, -17176,67, 0,00, 0,00, 0,00
206, -23956,22, -20922,26, -8081,16, -19499,06, -11975,53, 186,23, -18759,57, -17191,04, -0,07, 0,97, 0,25
207, -23941,31, -20914,19, -8282,71, -19497,34, -11996,11, 23,60, -18776,38, -17231,34, 0,00, 0,00, 0,00
208, -23938,63, -20910,64, -8511,66, -19491,59, -11996,16, -162,52, -18780,81, -17226,20, 0,00, 0,00, 0,00
209, -23944,26, -20907,42, -8482,67, -19483,99, -11976,11, -157,94, -18765,12, -17204,94, 0,00, 0,00, 0,00
210, -23960,53, -20917,57, -8230,00, -19492,78, -11960,24, 44,61, -18755,66, -17193,88, 0,00, 0,00, 0,00
211, -23969,50, -20930,04, -8084,89, -19509,70, -11965,31, 181,38, -18758,59, -17200,20, 0,00, 0,00, 0,00
212, -23960,46, -20930,15, -8260,02, -19514,68, -11985,88, 48,39, -18769,99, -17223,85, 0,00, 0,00, 0,00
213, -23950,54, -20921,05, -8508,79, -19509,54, -11993,36, -156,22, -18765,76, -17236,12, 0,00, 0,00, 0,00
214, -23954,86, -20916,11, -8489,50, -19504,94, -11977,12, -162,25, -18757,74, -17232,99, 0,00, 0,00, 0,00
215, -23966,86, -20922,15, -8230,99, -19505,16, -11956,33, 49,71, -18740,66, -17182,84, -0,08, 0,97, 0,25
216, -23967,22, -20929,32, -8112,59, -19510,23, -11963,01, 160,69, -18735,61, -17152,97, 0,00, 0,00, 0,00
217, -23956,49, -20928,85, -8295,80, -19513,05, -11984,07, 17,72, -18745,71, -17181,25, 0,00, 0,00, 0,00
218, -23945,49, -20919,96, -8528,62, -19503,44, -11983,15, -173,81, -18723,86, -17196,89, 0,00, 0,00, 0,00
219, -23952,98, -20919,94, -8487,00, -19497,47, -11968,64, -155,03, -18705,59, -17188,27, 0,00, 0,00, 0,00
220, -23964,09, -20925,50, -8228,59, -19496,67, -11958,23, 54,31, -18709,44, -17172,00, 0,00, 0,00, 0,00
221, -23969,29, -20936,03, -8103,38, -19506,37, -11970,66, 169,67, -18724,66, -17190,30, 0,00, 0,00, 0,00
222, -23958,77, -20934,35, -8286,44, -19509,81, -11997,99, 25,79, -18747,17, -17233,37, 0,00, 0,00, 0,00
223, -23942,00, -20917,01, -8531,71, -19493,49, -11999,24, -176,09, -18764,94, -17221,93, 0,00, 0,00, 0,00
224, -23939,95, -20904,22, -8498,80, -19478,74, -11980,31, -169,63, -18760,82, -17209,03, 0,00, 0,00, 0,00
225, -23953,67, -20911,49, -8226,02, -19479,43, -11966,16, 56,26, -18747,03, -17182,99, -0,08, 0,97, 0,24
226, -23956,96, -20920,67, -8100,63, -19484,08, -11974,28, 175,80, -18746,45, -17188,87, 0,00, 0,00, 0,00
227, -23945,87, -20916,63, -8284,16, -19481,33, -11993,72, 29,01, -18762,54, -17212,47, 0,00, 0,00, 0,00
228, -23932,26, -20901,88, -8522,50, -19473,69, -11998,55, -170,16, -18767,06, -17225,77, 0,00, 0,00, 0,00
229, -23936,95, -20896,47, -8487,45, -19465,62, -11980,56, -162,21, -18749,34, -17202,26, 0,00, 0,00, 0,00
230, -23955,39, -20908,76, -8218,18, -19472,73, -11964,24, 59,14, -18734,70, -17167,84, 0,00, 0,00, 0,00
231, -23958,28, -20915,53, -8081,79, -19482,79, -11973,20, 187,04, -18745,49, -17170,45, 0,00, 0,00, 0,00
232, -23947,97, -20913,99, -8265,58, -19486,79, -11998,80, 41,37, -18774,71, -17201,50, 0,00, 0,00, 0,00
233, -23930,09, -20897,40, -8522,36, -19475,28, -12001,57, -180,07, -18776,65, -17221,48, 0,00, 0,00, 0,00
234, -23938,87, -20893,49, -8484,63, -19470,56, -11975,24, -167,12, -18735,99, -17202,46, 0,00, 0,00, 0,00
235, -23952,29, -20892,71, -8217,95, -19474,54, -11955,63, 51,57, -18717,95, -17177,20, -0,08, 0,97, 0,23
236, -23955,93, -20903,55, -8081,56, -19484,95, -11958,27, 176,82, -18720,68, -17179,17, 0,00, 0,00, 0,00
237, -23944,17, -20913,65, -8258,81, -19489,76, -11979,06, 40,30, -18737,20, -17200,54, 0,00, 0,00, 0,00
238, -23932,37, -20906,95, -8508,91, -19478,54, -11979,01, -167,41, -18733,24, -17196,69, 0,00, 0,00, 0,00
239, -23937,09, -20896,98, -8474,31, -19472,84, -11960,55, -156,84, -18728,62, -17186,90, 0,00, 0,00, 0,00
240, -23942,90, -20896,33, -8206,44, -19473,00, -11939,54, 61,27, -18706,53, -17164,11, 0,00, 0,00, 0,00
241, -23945,22, -20905,05, -8069,25, -19479,77, -11945,80, 187,44, -18712,03, -17148,28, 0,00, 0,00, 0,00
242, -23936,21, -20904,33, -8247,08, -19486,27, -11976,20, 49,24, -18739,52, -17189,70, 0,00, 0,00, 0,00
243, -23919,09, -20887,99, -8490,09, -19475,37, -11985,94, -150,18, -18747,30, -17205,97, 0,00, 0,00, 0,00
244, -23920,88, -20882,65, -8462,42, -19469,20, -11974,50, -144,21, -18741,45, -17204,21, 0,00, 0,00, 0,00
245, -23931,27, -20882,00, -8198,87, -19474,72, -11966,54, 69,49, -18741,54, -17191,75, -0,08, 0,97, 0,23
246, -23930,09, -20885,07, -8075,51, -19483,68, -11982,86, 182,90, -18769,01, -17182,10, 0,00, 0,00, 0,00
247, -23920,77, -20891,64, -8267,28, -19490,54, -12007,98, 30,33, -18784,67, -17213,10, 0,00, 0,00, 0,00
248, -23913,37, -20887,01, -8497,93, -19489,33, -12015,58, -157,98, -18776,11, -17237,24, 0,00, 0,00, 0,00
249, -23917,17, -20879,75, -8467,73, -19484,33, -12002,37, -152,22, -18769,36, -17231,50, 0,00, 0,00, 0,00
250, -23930,89, -20888,20, -8205,57, -19486,09, -11984,49, 59,66, -18757,72, -17218,00, 0,00, 0,00, 0,00
251, -23937,87, -20900,91, -8069,83, -19498,63, -11990,53, 185,92, -18761,07, -17211,09, 0,00, 0,00, 0,00
252, -23925,91, -20896,69, -8247,44, -19502,61, -12008,18, 48,03, -18782,21, -17224,30, 0,00, 0,00, 0,00
253, -23915,45, -20888,11, -8504,44, -19490,59, -12016,25, -168,93, -18809,82, -17240,46, 0,00, 0,00, 0,00
254, -23917,30, -20880,42, -8470,84, -19477,33, -11989,94, -159,97, -18778,35, -17197,07, 0,00, 0,00, 0,00
255, -23932,77, -20887,82, -8199,67, -19484,60, -11971,42, 59,25, -18741,87, -17172,06, -0,08, 0,97, 0,23
0, -23934,52, -20892,44, -8075,93, -19490,59, -11972,62, 171,68, -18723,21, -17167,90, 0,00, 0,00, 0,00
1, -23927,01, -20895,75, -8260,44, -19494,68, -11991,51, 28,34, -18741,71, -17198,26, 0,00, 0,00, 0,00
2, -23915,40, -20886,50, -8509,35, -19482,32, -11988,94, -178,88, -18739,39, -17214,46, 0,00, 0,00, 0,00
3, -23926,27, -20887,32, -8467,60, -19479,61, -11971,53, -163,99, -18739,52, -17204,96, 0,00, 0,00, 0,00
4, -23938,99, -20893,29, -8199,11, -19479,86, -11945,93, 57,47, -18712,21, -17166,97, 0,00, 0,00, 0,00
5, -23939,86, -20899,35, -8075,89, -19487,23, -11952,46, 174,95, -18718,20, -17155,68, 0,00, 0,00, 0,00
6, -23936,35, -20904,22, -8269,16, -19498,10, -11982,75, 22,08, -18746,88, -17197,12, 0,00, 0,00, 0,00
7, -23925,66, -20892,55, -8515,32, -19484,69, -11984,83, -180,02, -18748,42, -17214,20, 0,00, 0,00, 0,00
8, -23931,30, -20888,24, -8467,49, -19472,86, -11964,96, -154,96, -18734,87, -17187,40, 0,00, 0,00, 0,00
9, -23941,49, -20892,26, -8206,64, -19472,50, -11948,93, 59,70, -18722,63, -17166,18, -0,09, 0,98, 0,23
10, -23949,60, -20906,30, -8079,64, -19486,50, -11963,97, 180,40, -18737,09, -17177,43, 0,00, 0,00, 0,00
11, -23940,48, -20905,79, -8261,63, -19488,91, -11992,51, 39,45, -18757,74, -17193,63, 0,00, 0,00, 0,00
12, -23932,04, -20897,36, -8504,39, -19482,09, -12003,60, -162,90, -18769,45, -17217,53, 0,00, 0,00, 0,00
13, -23936,64, -20891,26, -8469,81, -19474,34, -11990,44, -154,50, -18760,02, -17202,04, 0,00, 0,00, 0,00
14, -23947,55, -20897,56, -8205,55, -19481,04, -11978,57, 57,82, -18749,94, -17189,32, 0,00, 0,00, 0,00
15, -23948,20, -20904,16, -8089,59, -19489,47, -11992,74, 164,49, -18773,23, -17197,86, 0,00, 0,00, 0,00
16, -23938,14, -20902,77, -8271,20, -19489,60, -12012,99, 21,66, -18795,07, -17232,14, 0,00, 0,00, 0,00
17, -23927,54, -20894,01, -8516,55, -19482,47, -12014,71, -185,52, -18789,03, -17261,54, 0,00, 0,00, 0,00
18, -23931,25, -20892,04, -8476,45, -19478,25, -11991,02, -173,14, -18763,48, -17221,13, 0,00, 0,00, 0,00
19, -23941,38, -20896,24, -8201,46, -19481,94, -11971,53, 50,49, -18753,13, -17183,66, -0,09, 0,98, 0,23
20, -23941,47, -20900,82, -8074,61, -19487,95, -11977,43, 167,19, -18759,75, -17190,75, 0,00, 0,00, 0,00
21, -23933,40, -20903,82, -8241,67, -19491,66, -11990,91, 38,07, -18752,93, -17216,72, 0,00, 0,00, 0,00
22, -23920,30, -20893,20, -8490,85, -19479,21, -11992,56, -169,02, -18749,22, -17210,78, 0,00, 0,00, 0,00
23, -23926,63, -20891,26, -8443,71, -19472,44, -11969,29, -145,44, -18729,22, -17167,53, 0,00, 0,00, 0,00
24, -23936,35, -20898,23, -8193,32, -19476,35, -11955,28, 56,59, -18721,60, -17164,73, 0,00, 0,00, 0,00
25, -23937,35, -20904,83, -8079,69, -19484,15, -11959,50, 165,36, -18726,98, -17165,80, 0,00, 0,00, 0,00
26, -23927,41, -20904,16, -8255,79, -19489,25, -11977,32, 32,72, -18739,32, -17187,51, 0,00, 0,00, 0,00
27, -23917,28, -20895,39, -8500,17, -19482,85, -11983,60, -171,68, -18746,32, -17218,26, 0,00, 0,00, 0,00
28, -23916,54, -20886,38, -8479,25, -19468,73, -11963,53, -175,53, -18730,58, -17205,21, -0,08, 0,97, 0,24
29, -23929,35, -20892,98, -8199,67, -19470,36, -11944,95, 57,18, -18718,40, -17169,63, 0,00, 0,00, 0,00
30, -23932,77, -20901,83, -8073,87, -19482,92, -11962,30, 174,66, -18749,94, -17184,45, 0,00, 0,00, 0,00
31, -23918,20, -20896,31, -8258,86, -19480,68, -11982,77, 29,77, -18768,16, -17215,00, 0,00, 0,00, 0,00
32, -23903,09, -20881,13, -8508,66, -19467,12, -11982,90, -180,47, -18751,57, -17230,13, 0,00, 0,00, 0,00
33, -23906,29, -20872,55, -8470,95, -19453,97, -11963,03, -167,82, -18738,00, -17209,66, 0,00, 0,00, 0,00
34, -23924,10, -20882,68, -8193,81, -19459,41, -11948,88, 63,01, -18735,05, -17160,84, 0,00, 0,00, 0,00
35, -23927,81, -20892,60, -8072,73, -19471,52, -11961,92, 177,79, -18739,46, -17172,69, 0,00, 0,00, 0,00
36, -23918,04, -20891,01, -8262,37, -19472,41, -11986,48, 32,01, -18762,37, -17204,23, 0,00, 0,00, 0,00
37, -23914,18, -20886,12, -8503,63, -19468,06, -11994,91, -167,88, -18769,41, -17227,76, 0,00, 0,00, 0,00
38, -23920,52, -20885,34, -8465,46, -19460,68, -11978,50, -152,10, -18747,88, -17210,91, -0,08, 0,98, 0,24
39, -23929,49, -20887,73, -8214,20, -19462,02, -11959,73, 53,49, -18725,58, -17175,88, 0,00, 0,00, 0,00
40, -23935,39, -20896,80, -8094,44, -19475,66, -11971,68, 163,95, -18738,85, -17188,94, 0,00, 0,00, 0,00
41, -23926,69, -20896,02, -8285,66, -19479,81, -11998,57, 10,64, -18769,72, -17234,80, 0,00, 0,00, 0,00
42, -23915,14, -20885,74, -8537,52, -19471,68, -12004,88, -204,90, -18781,99, -17260,58, 0,00, 0,00, 0,00
43, -23925,15, -20887,35, -8486,89, -19468,10, -11983,06, -182,50, -18757,74, -17233,93, 0,00, 0,00, 0,00
44, -23937,62, -20892,51, -8214,91, -19471,14, -11965,02, 39,14, -18735,75, -17195,51, 0,00, 0,00, 0,00
45, -23938,96, -20898,61, -8099,24, -19477,33, -11972,02, 145,13, -18743,52, -17181,43, 0,00, 0,00, 0,00
46, -23925,87, -20891,06, -8287,71, -19472,88, -11986,57, -3,80, -18754,72, -17201,54, 0,00, 0,00, 0,00
47, -23925,08, -20886,88, -8521,74, -19470,87, -11990,15, -198,26, -18751,50, -17216,39, 0,00, 0,00, 0,00
48, -23932,66, -20885,40, -8467,60, -19466,02, -11970,61, -167,50, -18734,09, -17198,24, -0,09, 0,98, 0,23
49, -23942,07, -20888,87, -8202,08, -19465,40, -11953,18, 47,99, -18725,44, -17168,13, 0,00, 0,00, 0,00
50, -23946,54, -20898,19, -8071,95, -19473,26, -11961,09, 166,43, -18728,84, -17164,51, 0,00, 0,00, 0,00
51, -23936,84, -20896,22, -8261,03, -19478,05, -11988,60, 17,68, -18747,93, -17203,27, 0,00, 0,00, 0,00
52, -23929,15, -20889,36, -8500,14, -19472,97, -11997,21, -177,43, -18764,31, -17230,89, 0,00, 0,00, 0,00
53, -23935,25, -20889,25, -8456,76, -19461,42, -11973,36, -154,32, -18746,32, -17186,50, 0,00, 0,00, 0,00
54, -23943,84, -20893,90, -8206,55, -19460,90, -11957,18, 49,38, -18722,20, -17164,20, 0,00, 0,00, 0,00
55, -23943,43, -20896,91, -8086,23, -19473,11, -11969,45, 161,02, -18732,30, -17171,10, 0,00, 0,00, 0,00
56, -23928,64, -20888,38, -8271,17, -19471,03, -11987,60, 15,85, -18746,99, -17195,29, 0,00, 0,00, 0,00
57, -23922,15, -20880,69, -8514,65, -19462,18, -11991,31, -185,65, -18751,71, -17213,68, 0,00, 0,00, 0,00
58, -23925,73, -20877,56, -8479,25, -19455,05, -11974,81, -176,51, -18741,09, -17195,76, -0,09, 0,98, 0,23
59, -23934,38, -20883,93, -8212,19, -19459,12, -11956,55, 38,36, -18720,44, -17169,96, 0,00, 0,00, 0,00
60, -23943,28, -20902,43, -8077,43, -19475,83, -11972,11, 160,11, -18745,11, -17183,04, 0,00, 0,00, 0,00
61, -23931,14, -20895,37, -8258,50, -19474,85, -11994,75, 16,61, -18759,42, -17213,61, 0,00, 0,00, 0,00
62, -23914,71, -20881,89, -8511,70, -19461,26, -11998,77, -198,17, -18754,39, -17241,22, 0,00, 0,00, 0,00
63, -23922,89, -20882,88, -8472,96, -19453,88, -11983,80, -189,14, -18751,95, -17230,11, 0,00, 0,00, 0,00
64, -23932,66, -20884,78, -8205,55, -19455,40, -11964,15, 29,55, -18731,14, -17166,68, 0,00, 0,00, 0,00
65, -23930,16, -20889,89, -8091,24, -19462,04, -11969,29, 134,92, -18727,52, -17159,28, 0,00, 0,00, 0,00
66, -23923,27, -20896,04, -8268,65, -19471,59, -11990,57, -6,28, -18748,08, -17195,33, 0,00, 0,00, 0,00
67, -23913,71, -20887,59, -8503,54, -19466,20, -11996,56, -204,90, -18761,58, -17215,45, 0,00, 0,00, 0,00
68, -23920,10, -20885,71, -8473,55, -19460,97, -11979,71, -202,66, -18750,81, -17208,96, -0,09, 0,97, 0,24
69, -23936,59, -20896,69, -8207,52, -19468,12, -11961,54, 14,22, -18730,72, -17198,82, 0,00, 0,00, 0,00
70, -23942,67, -20905,90, -8082,90, -19482,56, -11973,58, 130,58, -18744,93, -17206,01, 0,00, 0,00, 0,00
71, -23929,75, -20903,15, -8278,39, -19485,11, -11997,99, -23,94, -18773,88, -17226,87, 0,00, 0,00, 0,00
72, -23917,86, -20894,90, -8517,62, -19474,05, -11996,09, -223,47, -18769,56, -17244,37, 0,00, 0,00, 0,00
73, -23927,41, -20898,32, -8483,07, -19469,31, -11977,76, -215,05, -18745,49, -17220,99, 0,00, 0,00, 0,00
74, -23942,52, -20906,73, -8216,39, -19471,59, -11958,09, 3,78, -18722,18, -17168,44, 0,00, 0,00, 0,00
75, -23952,87, -20920,27, -8086,79, -19488,40, -11973,00, 124,81, -18738,56, -17170,14, 0,00, 0,00, 0,00
76, -23950,36, -20927,63, -8268,96, -19498,83, -12000,63, -15,11, -18759,57, -17212,47, 0,00, 0,00, 0,00
77, -23945,00, -20922,62, -8520,08, -19493,45, -12010,51, -225,57, -18765,61, -17237,69, 0,00, 0,00, 0,00
78, -23952,62, -20921,77, -8476,18, -19484,82, -11992,98, -204,03, -18749,58, -17206,42, -0,09, 0,96, 0,24
79, -23962,66, -20927,11, -8228,33, -19486,29, -11980,92, -2,21, -18739,41, -17187,08, 0,00, 0,00, 0,00
80, -23963,15, -20929,79, -8108,25, -19495,79, -11988,63, 106,64, -18739,50, -17195,29, 0,00, 0,00, 0,00
81, -23953,58, -20927,80, -8293,59, -19499,68, -12013,66, -39,63, -18761,58, -17222,71, 0,00, 0,00, 0,00
82, -23938,18, -20912,27, -8542,03, -19482,38, -12014,42, -251,61, -18762,97, -17241,06, 0,00, 0,00, 0,00
83, -23951,62, -20915,80, -8488,68, -19480,53, -11995,76, -226,13, -18746,32, -17226,18, 0,00, 0,00, 0,00
84, -23967,15, -20926,57, -8216,08, -19487,08, -11984,54, 3,29, -18750,61, -17183,33, 0,00, 0,00, 0,00
85, -23975,53, -20940,70, -8082,57, -19499,62, -11990,91, 131,27, -18754,39, -17175,57, 0,00, 0,00, 0,00
86, -23968,58, -20944,54, -8275,96, -19502,05, -12015,65, -18,82, -18776,85, -17205,50, 0,00, 0,00, 0,00
87, -23955,50, -20928,99, -8523,14, -19490,36, -12016,36, -226,45, -18774,37, -17219,89, 0,00, 0,00, 0,00
88, -23956,29, -20919,51, -8481,88, -19479,50, -11991,71, -212,63, -18745,45, -17204,63, -0,08, 0,96, 0,24
89, -23971,96, -20929,44, -8225,26, -19488,80, -11982,77, -6,19, -18752,93, -17197,61, 0,00, 0,00, 0,00
90, -23972,96, -20935,69, -8103,20, -19493,89, -11986,99, 108,56, -18746,14, -17189,34, 0,00, 0,00, 0,00
91, -23964,27, -20936,12, -8284,61, -19496,46, -12004,67, -31,87, -18745,60, -17222,11, 0,00, 0,00, 0,00
92, -23958,10, -20930,17, -8533,31, -19492,26, -12015,90, -245,76, -18765,76, -17288,22, 0,00, 0,00, 0,00
93, -23962,79, -20925,12, -8492,46, -19481,82, -11993,21, -231,88, -18750,90, -17243,37, 0,00, 0,00, 0,00
94, -23976,27, -20930,11, -8214,06, -19482,05, -11966,94, 1,88, -18721,37, -17163,93, 0,00, 0,00, 0,00
95, -23980,18, -20941,86, -8077,85, -19492,67, -11978,50, 133,80, -18735,84, -17160,28, 0,00, 0,00, 0,00
96, -23965,18, -20938,98, -8275,15, -19492,40, -11999,80, -20,34, -18748,46, -17191,22, 0,00, 0,00, 0,00
97, -23952,66, -20928,83, -8522,38, -19480,97, -11998,97, -229,93, -18740,19, -17208,74, 0,00, 0,00, 0,00
98, -23957,61, -20925,05, -8482,40, -19473,93, -11981,25, -219,07, -18722,31, -17202,77, -0,08, 0,97, 0,24
99, -23967,69, -20929,41, -8218,69, -19475,95, -11969,27, -5,86, -18724,66, -17183,93, 0,00, 0,00, 0,00
100, -23969,70, -20937,08, -8099,29, -19484,80, -11980,67, 106,57, -18737,62, -17182,50, 0,00, 0,00, 0,00
101, -23957,65, -20933,73, -8291,67, -19488,62, -12007,74, -43,83, -18760,02, -17212,83, 0,00, 0,00, 0,00
102, -23951,37, -20923,60, -8535,37, -19483,14, -12019,67, -246,72, -18776,45, -17226,96, 0,00, 0,00, 0,00
103, -23954,83, -20917,59, -8486,82, -19471,25, -11997,66, -225,39, -18757,27, -17200,47, 0,00, 0,00, 0,00
104, -23966,86, -20923,78, -8203,76, -19468,97, -11970,92, 8,67, -18716,99, -17165,49, 0,00, 0,00, 0,00
105, -23970,66, -20932,97, -8078,32, -19481,78, -11982,70, 124,68, -18731,03, -17179,68, 0,00, 0,00, 0,00
106, -23952,33, -20923,45, -8283,60, -19481,22, -12007,27, -39,72, -18761,05, -17220,79, 0,00, 0,00, 0,00
107, -23938,92, -20907,73, -8527,17, -19469,46, -12005,39, -244,35, -18756,04, -17232,68, -0,08, 0,98, 0,24
