%OpenBCI Raw EEG Data
%
%Sample Rate = 250.0 Hz
%First Column = SampleIndex
%Other Columns = EEG data in microvolts followed by Accel Data (in G) interleaved with Aux Data
0, -30927,37, -31370,45, -25048,06, -31034,01, -12118,53, -22425,75, -27186,85, -25647,62, -0,11, 0,97, 0,22
1, -30930,86, -31373,33, -25063,12, -31032,76, -12117,04, -22427,38, -27187,34, -25646,48, 0,00, 0,00, 0,00
2, -30927,50, -31370,56, -25071,66, -31029,67, -12116,95, -22412,18, -27191,32, -25645,36, 0,00, 0,00, 0,00
3, -30922,86, -31369,49, -25057,40, -31029,52, -12114,44, -22403,73, -27184,73, -25647,84, 0,00, 0,00, 0,00
4, -30933,70, -31369,02, -25050,70, -31030,66, -12117,26, -22417,86, -27177,35, -25664,94, 0,00, 0,00, 0,00
5, -30931,59, -31367,81, -25057,78, -31027,53, -12111,49, -22429,08, -27166,82, -25660,25, 0,00, 0,00, 0,00
6, -30928,22, -31363,34, -25070,86, -31023,37, -12108,90, -22427,11, -27168,52, -25636,38, 0,00, 0,00, 0,00
7, -30930,54, -31369,35, -25064,44, -31022,46, -12105,06, -22396,58, -27169,17, -25620,42, -0,09, 0,96, 0,26
8, -30936,76, -31371,99, -25034,36, -31026,63, -12111,45, -22381,31, -27182,89, -25629,58, 0,00, 0,00, 0,00
9, -30927,68, -31362,02, -25024,72, -31023,26, -12109,26, -22392,76, -27154,35, -25631,66, 0,00, 0,00, 0,00
10, -30921,60, -31357,98, -25030,31, -31019,88, -12106,91, -22402,84, -27135,75, -25633,20, 0,00, 0,00, 0,00
11, -30923,01, -31362,09, -25055,77, -31014,03, -12103,92, -22406,66, -27140,69, -25613,22, 0,00, 0,00, 0,00
12, -30927,53, -31371,39, -25059,57, -31020,02, -12113,24, -22385,85, -27160,16, -25633,65, 0,00, 0,00, 0,00
13, -30925,18, -31374,07, -25039,25, -31027,15, -12122,00, -22379,53, -27188,04, -25674,62, 0,00, 0,00, 0,00
14, -30917,78, -31368,77, -25032,95, -31022,46, -12120,10, -22397,16, -27200,98, -25674,06, 0,00, 0,00, 0,00
15, -30916,02, -31365,42, -25030,35, -31019,37, -12112,95, -22404,63, -27185,73, -25639,80, 0,00, 0,00, 0,00
16, -30911,72, -31359,09, -25043,36, -31012,89, -12109,30, -22405,43, -27170,73, -25626,97, -0,10, 0,96, 0,25
17, -30909,38, -31367,16, -25031,96, -31018,23, -12114,71, -22375,64, -27192,28, -25629,61, 0,00, 0,00, 0,00
18, -30906,38, -31367,36, -25005,10, -31018,88, -12117,53, -22368,08, -27204,46, -25652,43, 0,00, 0,00, 0,00
19, -30915,01, -31357,24, -25001,63, -31018,68, -12120,14, -22389,79, -27209,83, -25662,69, 0,00, 0,00, 0,00
20, -30914,94, -31356,23, -24998,62, -31019,12, -12114,96, -22397,86, -27199,66, -25658,48, 0,00, 0,00, 0,00
21, -30904,37, -31351,67, -25032,12, -31008,42, -12106,42, -22417,19, -27154,35, -25648,89, 0,00, 0,00, 0,00
22, -30907,59, -31353,28, -25026,11, -31006,70, -12099,83, -22384,76, -27148,05, -25635,15, 0,00, 0,00, 0,00
23, -30903,12, -31352,05, -25002,75, -31004,04, -12101,68, -22370,90, -27152,83, -25642,01, 0,00, 0,00, 0,00
24, -30896,55, -31355,96, -25010,91, -31000,84, -12101,55, -22388,60, -27155,29, -25631,62, 0,00, 0,00, 0,00
25, -30901,80, -31367,86, -25028,23, -31002,70, -12101,50, -22403,24, -27156,16, -25630,57, 0,00, 0,00, 0,00
26, -30917,60, -31373,09, -25031,54, -31010,29, -12102,60, -22395,08, -27157,53, -25634,23, -0,10, 0,97, 0,26
27, -30921,29, -31374,74, -25025,15, -31009,85, -12103,94, -22370,54, -27169,15, -25637,99, 0,00, 0,00, 0,00
28, -30920,02, -31372,26, -25023,27, -31008,48, -12106,64, -22373,22, -27185,33, -25646,41, 0,00, 0,00, 0,00
29, -30921,11, -31373,24, -25008,56, -31009,87, -12098,93, -22376,24, -27164,83, -25632,85, 0,00, 0,00, 0,00
30, -30922,07, -31380,82, -25000,18, -31010,70, -12093,72, -22377,13, -27137,19, -25610,25, 0,00, 0,00, 0,00
31, -30916,02, -31380,71, -25012,32, -31009,29, -12094,04, -22379,71, -27130,39, -25586,73, 0,00, 0,00, 0,00
32, -30912,69, -31374,38, -25012,92, -31008,95, -12096,58, -22360,33, -27141,10, -25598,69, 0,00, 0,00, 0,00
33, -30922,65, -31376,10, -24985,99, -31009,80, -12103,11, -22350,20, -27160,65, -25627,10, 0,00, 0,00, 0,00
34, -30924,06, -31371,32, -24969,51, -31009,33, -12107,02, -22362,52, -27159,54, -25628,93, 0,00, 0,00, 0,00
35, -30918,85, -31359,74, -24987,75, -31007,17, -12112,45, -22393,03, -27165,55, -25629,76, 0,00, 0,00, 0,00
36, -30916,22, -31359,96, -25012,85, -31007,48, -12119,79, -22413,35, -27173,22, -25656,11, -0,10, 0,96, 0,26
37, -30908,35, -31362,74, -25003,93, -30997,87, -12113,01, -22388,00, -27180,84, -25631,21, 0,00, 0,00, 0,00
38, -30904,71, -31364,91, -24996,36, -30991,32, -12110,31, -22388,29, -27180,41, -25631,95, 0,00, 0,00, 0,00
39, -30907,66, -31365,44, -24968,33, -30991,41, -12104,14, -22388,31, -27147,67, -25635,15, 0,00, 0,00, 0,00
40, -30907,95, -31363,41, -24975,91, -30989,82, -12110,76, -22407,78, -27157,50, -25629,07, 0,00, 0,00, 0,00
41, -30906,94, -31363,54, -24988,73, -30988,97, -12113,37, -22413,97, -27168,75, -25631,88, 0,00, 0,00, 0,00
42, -30904,28, -31357,98, -24980,33, -30986,83, -12111,61, -22389,45, -27160,88, -25634,59, 0,00, 0,00, 0,00
43, -30901,89, -31356,97, -24958,47, -30986,42, -12112,34, -22386,30, -27160,83, -25649,61, 0,00, 0,00, 0,00
44, -30899,74, -31356,70, -24949,35, -30987,52, -12111,40, -22404,49, -27163,27, -25651,46, 0,00, 0,00, 0,00
45, -30907,46, -31360,97, -24941,57, -30996,08, -12116,63, -22415,07, -27170,87, -25651,26, 0,00, 0,00, 0,00
46, -30902,45, -31360,03, -24977,85, -30990,89, -12118,02, -22438,67, -27184,10, -25649,39, -0,09, 0,97, 0,27
47, -30917,96, -31371,14, -24951,18, -30997,09, -12113,37, -22395,42, -27180,86, -25641,14, 0,00, 0,00, 0,00
48, -30919,64, -31360,19, -24934,46, -30991,01, -12110,38, -22389,25, -27168,28, -25638,90, 0,00, 0,00, 0,00
49, -30918,34, -31346,60, -24932,25, -30986,07, -12105,12, -22404,00, -27153,48, -25636,76, 0,00, 0,00, 0,00
50, -30918,12, -31351,54, -24933,95, -30984,46, -12101,06, -22410,84, -27144,70, -25645,45, 0,00, 0,00, 0,00
51, -30914,96, -31364,08, -24953,29, -30985,53, -12099,92, -22410,60, -27137,19, -25644,31, 0,00, 0,00, 0,00
52, -30919,64, -31370,47, -24940,70, -30983,96, -12098,91, -22373,80, -27143,15, -25621,51, 0,00, 0,00, 0,00
53, -30921,09, -31372,42, -24916,94, -30980,48, -12093,54, -22357,80, -27149,81, -25612,66, 0,00, 0,00, 0,00
54, -30926,68, -31379,19, -24894,86, -30986,38, -12092,67, -22362,05, -27134,62, -25621,40, 0,00, 0,00, 0,00
55, -30921,20, -31376,30, -24906,12, -30988,05, -12098,46, -22384,76, -27131,26, -25625,98, 0,00, 0,00, 0,00
56, -30916,91, -31371,46, -24938,96, -30984,90, -12094,60, -22400,49, -27133,50, -25610,54, -0,10, 0,96, 0,27
57, -30925,76, -31376,53, -24930,51, -30991,92, -12095,36, -22370,65, -27140,47, -25610,79, 0,00, 0,00, 0,00
58, -30928,13, -31376,01, -24911,06, -30996,93, -12106,98, -22365,56, -27163,34, -25638,05, 0,00, 0,00, 0,00
59, -30921,89, -31366,87, -24910,88, -30994,52, -12109,64, -22388,49, -27185,08, -25644,98, 0,00, 0,00, 0,00
60, -30918,83, -31368,71, -24924,99, -30993,75, -12109,04, -22411,24, -27176,86, -25643,20, 0,00, 0,00, 0,00
61, -30915,23, -31367,59, -24934,46, -30992,62, -12105,15, -22410,75, -27165,79, -25636,91, 0,00, 0,00, 0,00
62, -30909,02, -31357,11, -24917,90, -30989,84, -12103,54, -22381,45, -27159,31, -25631,50, 0,00, 0,00, 0,00
63, -30913,62, -31356,17, -24888,80, -30989,51, -12102,93, -22368,33, -27142,04, -25626,52, 0,00, 0,00, 0,00
64, -30907,21, -31355,18, -24889,78, -30978,31, -12101,30, -22389,88, -27134,28, -25628,51, 0,00, 0,00, 0,00
65, -30909,04, -31355,94, -24912,96, -30971,29, -12100,41, -22412,63, -27137,39, -25630,74, 0,00, 0,00, 0,00
66, -30909,40, -31359,03, -24938,82, -30969,17, -12102,40, -22419,36, -27146,33, -25638,54, -0,10, 0,96, 0,27
67, -30902,74, -31361,22, -24934,02, -30969,06, -12100,47, -22389,16, -27153,19, -25649,12, 0,00, 0,00, 0,00
68, -30904,26, -31356,01, -24910,37, -30967,98, -12103,07, -22371,37, -27166,18, -25638,88, 0,00, 0,00, 0,00
69, -30900,32, -31347,98, -24902,77, -30964,00, -12097,43, -22379,95, -27157,44, -25620,93, 0,00, 0,00, 0,00
70, -30896,30, -31347,34, -24921,66, -30963,22, -12098,10, -22401,30, -27147,89, -25625,29, 0,00, 0,00, 0,00
71, -30890,71, -31341,55, -24955,79, -30961,77, -12101,39, -22416,41, -27158,20, -25636,76, 0,00, 0,00, 0,00
72, -30897,29, -31343,78, -24936,43, -30965,93, -12097,03, -22376,60, -27158,29, -25634,63, 0,00, 0,00, 0,00
73, -30900,93, -31342,31, -24914,39, -30965,90, -12095,89, -22362,92, -27155,11, -25628,73, 0,00, 0,00, 0,00
74, -30902,49, -31345,28, -24892,58, -30965,08, -12091,09, -22363,17, -27139,58, -25611,10, 0,00, 0,00, 0,00
75, -30902,02, -31349,19, -24893,14, -30967,31, -12091,87, -22377,49, -27139,87, -25622,32, 0,00, 0,00, 0,00
76, -30896,14, -31340,99, -24923,80, -30960,36, -12086,08, -22393,29, -27132,33, -25626,86, -0,10, 0,96, 0,26
77, -30894,42, -31348,41, -24919,60, -30965,17, -12081,03, -22364,13, -27127,91, -25610,83, 0,00, 0,00, 0,00
78, -30895,29, -31353,26, -24891,59, -30968,81, -12081,88, -22348,26, -27127,35, -25613,91, 0,00, 0,00, 0,00
79, -30899,12, -31338,26, -24887,93, -30965,57, -12080,04, -22367,88, -27119,19, -25638,61, 0,00, 0,00, 0,00
80, -30897,31, -31344,92, -24910,33, -30968,52, -12083,71, -22395,35, -27132,65, -25651,24, 0,00, 0,00, 0,00
81, -30901,38, -31351,92, -24922,78, -30968,83, -12084,40, -22397,23, -27155,47, -25648,29, 0,00, 0,00, 0,00
82, -30902,80, -31354,18, -24923,33, -30970,33, -12084,60, -22376,58, -27153,48, -25623,64, 0,00, 0,00, 0,00
83, -30909,15, -31357,22, -24888,82, -30985,15, -12095,74, -22365,42, -27149,21, -25636,15, 0,00, 0,00, 0,00
84, -30904,77, -31349,01, -24873,13, -30989,04, -12102,53, -22382,30, -27144,85, -25638,57, 0,00, 0,00, 0,00
85, -30890,69, -31341,75, -24897,09, -30977,26, -12097,81, -22409,57, -27148,23, -25641,34, 0,00, 0,00, 0,00
86, -30886,31, -31344,10, -24917,81, -30973,71, -12092,72, -22416,92, -27147,00, -25647,40, -0,10, 0,96, 0,28
87, -30889,82, -31342,24, -24891,51, -30979,34, -12093,25, -22378,03, -27151,09, -25639,78, 0,00, 0,00, 0,00
88, -30885,59, -31337,26, -24864,57, -30978,31, -12097,55, -22369,94, -27152,88, -25642,97, 0,00, 0,00, 0,00
89, -30880,37, -31331,94, -24872,15, -30973,13, -12094,64, -22396,89, -27141,23, -25626,83, 0,00, 0,00, 0,00
90, -30890,24, -31339,09, -24870,25, -30976,48, -12093,68, -22405,48, -27138,93, -25628,49, 0,00, 0,00, 0,00
91, -30886,44, -31339,34, -24881,29, -30971,34, -12088,85, -22406,55, -27124,15, -25630,01, 0,00, 0,00, 0,00
92, -30883,07, -31336,65, -24871,17, -30968,63, -12086,64, -22377,43, -27127,02, -25621,00, 0,00, 0,00, 0,00
93, -30880,21, -31333,01, -24860,28, -30969,48, -12088,09, -22374,36, -27138,01, -25628,31, 0,00, 0,00, 0,00
94, -30873,70, -31326,95, -24854,98, -30966,33, -12085,57, -22392,89, -27138,55, -25648,51, 0,00, 0,00, 0,00
95, -30869,37, -31322,71, -24863,05, -30961,32, -12076,25, -22406,42, -27124,53, -25652,80, -0,10, 0,96, 0,27
96, -30873,53, -31325,63, -24866,02, -30963,22, -12079,87, -22400,29, -27124,40, -25635,15, 0,00, 0,00, 0,00
97, -30873,30, -31324,09, -24865,85, -30962,37, -12083,15, -22374,41, -27137,97, -25607,90, 0,00, 0,00, 0,00
98, -30868,00, -31318,23, -24857,49, -30954,53, -12080,27, -22368,87, -27143,64, -25602,45, 0,00, 0,00, 0,00
99, -30870,69, -31320,34, -24864,37, -30955,06, -12078,06, -22386,05, -27148,56, -25616,93, 0,00, 0,00, 0,00
100, -30876,39, -31329,90, -24840,37, -30959,80, -12071,33, -22372,33, -27127,89, -25595,52, 0,00, 0,00, 0,00
101, -30874,71, -31330,13, -24847,74, -30960,00, -12072,98, -22370,52, -27129,12, -25587,38, 0,00, 0,00, 0,00
102, -30874,38, -31329,57, -24831,87, -30961,35, -12073,23, -22338,15, -27129,45, -25606,74, 0,00, 0,00, 0,00
103, -30872,36, -31328,05, -24812,69, -30962,48, -12076,36, -22333,62, -27133,88, -25642,55, 0,00, 0,00, 0,00
104, -30865,10, -31323,62, -24818,97, -30955,89, -12067,13, -22356,33, -27116,58, -25637,52, 0,00, 0,00, 0,00
105, -30859,94, -31319,64, -24838,62, -30953,54, -12059,57, -22370,34, -27101,11, -25601,71, -0,10, 0,96, 0,27
106, -30858,35, -31311,31, -24840,03, -30950,95, -12053,85, -22356,13, -27103,01, -25583,74, 0,00, 0,00, 0,00
107, -30851,35, -31306,46, -24836,83, -30952,87, -12060,67, -22335,74, -27125,27, -25602,42, 0,00, 0,00, 0,00
108, -30849,23, -31310,23, -24832,92, -30957,57, -12072,42, -22342,22, -27146,66, -25612,57, 0,00, 0,00, 0,00
109, -30855,06, -31317,68, -24822,71, -30964,68, -12081,56, -22359,14, -27143,55, -25603,74, 0,00, 0,00, 0,00
110, -30843,86, -31311,11, -24833,41, -30955,98, -12079,60, -22377,31, -27128,18, -25601,38, 0,00, 0,00, 0,00
111, -30841,47, -31312,89, -24830,75, -30958,17, -12075,69, -22373,45, -27118,46, -25606,34, 0,00, 0,00, 0,00
112, -30841,88, -31317,12, -24822,75, -30964,18, -12079,49, -22359,95, -27122,03, -25631,21, 0,00, 0,00, 0,00
113, -30832,38, -31316,96, -24811,29, -30968,10, -12085,30, -22365,98, -27143,22, -25663,65, 0,00, 0,00, 0,00
114, -30825,92, -31306,17, -24801,54, -30964,81, -12083,91, -22381,81, -27144,85, -25677,55, 0,00, 0,00, 0,00
115, -30838,86, -31305,85, -24799,08, -30961,03, -12073,00, -22388,20, -27121,00, -25653,59, -0,10, 0,96, 0,26
116, -30837,65, -31308,20, -24812,31, -30961,81, -12072,45, -22390,26, -27122,70, -25612,35, 0,00, 0,00, 0,00
117, -30825,24, -31300,96, -24826,28, -30959,78, -12069,85, -22373,07, -27121,14, -25591,49, 0,00, 0,00, 0,00
118, -30825,83, -31301,20, -24793,63, -30960,81, -12068,04, -22348,86, -27116,85, -25592,68, 0,00, 0,00, 0,00
119, -30825,16, -31299,50, -24775,39, -30960,45, -12069,20, -22357,42, -27129,94, -25619,81, 0,00, 0,00, 0,00
120, -30813,64, -31292,26, -24801,70, -30953,81, -12070,01, -22390,32, -27150,42, -25652,27, 0,00, 0,00, 0,00
121, -30812,64, -31288,91, -24809,41, -30951,44, -12065,40, -22385,27, -27150,35, -25633,25, 0,00, 0,00, 0,00
122, -30812,75, -31287,41, -24797,79, -30945,79, -12053,00, -22348,64, -27122,25, -25593,69, 0,00, 0,00, 0,00
123, -30813,20, -31288,31, -24756,99, -30947,69, -12041,42, -22323,00, -27098,07, -25583,11, 0,00, 0,00, 0,00
124, -30805,75, -31276,35, -24760,68, -30945,34, -12038,00, -22349,35, -27081,84, -25594,56, 0,00, 0,00, 0,00
125, -30811,43, -31275,16, -24769,13, -30951,85, -12040,48, -22367,14, -27085,71, -25605,84, -0,10, 0,97, 0,26
126, -30809,51, -31278,87, -24782,85, -30946,35, -12040,46, -22367,93, -27091,61, -25594,11, 0,00, 0,00, 0,00
127, -30803,18, -31279,23, -24791,01, -30941,92, -12040,53, -22346,09, -27108,40, -25584,39, 0,00, 0,00, 0,00
128, -30804,75, -31281,85, -24782,05, -30952,45, -12054,92, -22345,53, -27136,92, -25607,16, 0,00, 0,00, 0,00
129, -30802,65, -31278,74, -24772,19, -30954,08, -12054,97, -22359,37, -27123,42, -25624,22, 0,00, 0,00, 0,00
130, -30792,59, -31259,45, -24795,37, -30948,38, -12055,50, -22386,77, -27114,83, -25619,55, 0,00, 0,00, 0,00
131, -30790,96, -31258,82, -24825,05, -30950,79, -12054,94, -22396,92, -27115,62, -25614,47, 0,00, 0,00, 0,00
132, -30794,87, -31271,86, -24814,93, -30954,48, -12051,84, -22363,41, -27106,59, -25601,75, 0,00, 0,00, 0,00
133, -30791,11, -31279,05, -24783,70, -30960,32, -12055,55, -22350,31, -27099,79, -25609,60, 0,00, 0,00, 0,00
134, -30791,52, -31273,44, -24785,60, -30962,44, -12063,97, -22379,93, -27108,78, -25625,51, 0,00, 0,00, 0,00
135, -30798,40, -31270,92, -24799,73, -30964,00, -12067,62, -22407,09, -27126,48, -25650,66, -0,10, 0,97, 0,26
136, -30794,58, -31265,87, -24823,29, -30963,49, -12072,71, -22423,34, -27151,49, -25678,11, 0,00, 0,00, 0,00
137, -30792,68, -31264,63, -24811,58, -30960,18, -12071,91, -22389,03, -27156,61, -25631,93, 0,00, 0,00, 0,00
138, -30792,37, -31265,75, -24780,37, -30958,84, -12069,54, -22368,89, -27124,36, -25583,89, 0,00, 0,00, 0,00
139, -30789,46, -31260,46, -24785,38, -30959,78, -12055,84, -22391,20, -27097,06, -25586,02, 0,00, 0,00, 0,00
140, -30793,13, -31270,42, -24785,16, -30975,11, -12064,49, -22402,28, -27102,38, -25600,55, 0,00, 0,00, 0,00
141, -30796,21, -31276,39, -24813,88, -30979,58, -12070,66, -22419,16, -27114,68, -25622,50, 0,00, 0,00, 0,00
142, -30800,28, -31281,82, -24816,40, -30979,88, -12061,05, -22392,27, -27112,73, -25634,46, 0,00, 0,00, 0,00
143, -30806,36, -31284,53, -24789,04, -30987,61, -12060,51, -22377,52, -27123,46, -25645,92, 0,00, 0,00, 0,00
144, -30805,38, -31278,85, -24773,64, -30986,74, -12057,67, -22385,14, -27144,47, -25608,35, 0,00, 0,00, 0,00
145, -30797,17, -31272,68, -24775,99, -30981,24, -12048,91, -22390,32, -27139,69, -25583,09, -0,10, 0,97, 0,26
146, -30798,15, -31272,64, -24778,70, -30986,13, -12046,18, -22383,71, -27109,29, -25586,80, 0,00, 0,00, 0,00
147, -30793,10, -31267,32, -24780,95, -30987,25, -12051,64, -22364,08, -27123,06, -25595,85, 0,00, 0,00, 0,00
148, -30792,83, -31261,01, -24781,45, -30987,65, -12062,36, -22371,46, -27157,01, -25626,81, 0,00, 0,00, 0,00
149, -30802,63, -31267,16, -24762,27, -30977,53, -12049,67, -22368,78, -27135,91, -25603,07, 0,00, 0,00, 0,00
150, -30806,76, -31272,46, -24758,04, -30974,80, -12044,26, -22370,21, -27104,24, -25579,02, 0,00, 0,00, 0,00
151, -30808,30, -31272,57, -24772,13, -30979,99, -12051,26, -22376,33, -27100,68, -25589,24, 0,00, 0,00, 0,00
152, -30810,36, -31275,03, -24753,19, -30981,66, -12054,68, -22342,40, -27099,34, -25585,84, 0,00, 0,00, 0,00
153, -30825,76, -31277,62, -24751,16, -30980,43, -12063,04, -22349,17, -27111,79, -25601,04, 0,00, 0,00, 0,00
154, -30833,38, -31277,82, -24745,10, -30980,70, -12066,12, -22366,83, -27117,56, -25612,21, 0,00, 0,00, 0,00
155, -30831,03, -31281,09, -24781,98, -30978,51, -12073,23, -22403,98, -27135,24, -25627,79, -0,10, 0,96, 0,26
156, -30838,37, -31292,75, -24799,28, -30982,49, -12074,32, -22406,48, -27132,51, -25625,51, 0,00, 0,00, 0,00
157, -30849,68, -31303,71, -24786,99, -30984,70, -12074,55, -22376,13, -27125,21, -25622,12, 0,00, 0,00, 0,00
158, -30860,31, -31308,60, -24789,40, -30989,66, -12088,43, -22390,50, -27148,07, -25678,22, 0,00, 0,00, 0,00
159, -30872,81, -31316,25, -24794,25, -30990,85, -12091,11, -22410,89, -27160,39, -25645,00, 0,00, 0,00, 0,00
160, -30876,77, -31320,20, -24804,65, -30990,96, -12090,53, -22419,76, -27153,61, -25591,56, 0,00, 0,00, 0,00
161, -30874,15, -31316,16, -24823,13, -30991,56, -12089,10, -22421,68, -27136,56, -25585,62, 0,00, 0,00, 0,00
162, -30877,01, -31318,73, -24830,15, -30992,93, -12090,84, -22400,22, -27138,35, -25590,04, 0,00, 0,00, 0,00
163, -30887,12, -31321,32, -24827,85, -30988,50, -12091,98, -22397,14, -27137,39, -25597,93, 0,00, 0,00, 0,00
164, -30891,81, -31327,29, -24826,60, -30990,60, -12091,65, -22411,11, -27135,40, -25610,14, -0,10, 0,96, 0,27
165, -30889,71, -31329,28, -24836,30, -30995,07, -12097,37, -22427,52, -27146,17, -25646,17, 0,00, 0,00, 0,00
166, -30881,44, -31321,25, -24858,16, -30990,18, -12093,77, -22431,58, -27131,93, -25651,84, 0,00, 0,00, 0,00
167, -30878,15, -31311,48, -24866,94, -30982,29, -12084,05, -22401,34, -27106,43, -25599,88, 0,00, 0,00, 0,00
168, -30883,49, -31324,02, -24828,63, -30985,44, -12082,03, -22371,12, -27108,11, -25574,46, 0,00, 0,00, 0,00
169, -30889,33, -31333,90, -24803,06, -30991,97, -12086,24, -22372,46, -27108,40, -25581,91, 0,00, 0,00, 0,00
170, -30886,73, -31328,40, -24806,99, -30991,72, -12092,27, -22388,78, -27110,59, -25590,40, 0,00, 0,00, 0,00
171, -30878,13, -31315,24, -24840,65, -30986,71, -12092,47, -22407,29, -27121,34, -25593,62, 0,00, 0,00, 0,00
172, -30872,43, -31310,68, -24837,91, -30984,52, -12093,05, -22380,60, -27130,81, -25600,66, 0,00, 0,00, 0,00
173, -30872,21, -31314,14, -24811,24, -30980,90, -12091,38, -22362,07, -27122,14, -25601,40, 0,00, 0,00, 0,00
174, -30873,59, -31311,08, -24793,92, -30980,52, -12096,07, -22370,92, -27118,52, -25613,02, -0,10, 0,97, 0,27
175, -30875,38, -31307,91, -24803,04, -30976,70, -12095,94, -22386,63, -27123,93, -25615,41, 0,00, 0,00, 0,00
176, -30870,06, -31305,94, -24834,15, -30975,87, -12095,11, -22401,05, -27124,78, -25622,16, 0,00, 0,00, 0,00
177, -30867,89, -31303,48, -24823,94, -30980,54, -12097,26, -22368,28, -27137,54, -25644,58, 0,00, 0,00, 0,00
178, -30861,70, -31297,40, -24808,83, -30978,04, -12101,77, -22365,98, -27142,19, -25672,70, 0,00, 0,00, 0,00
179, -30858,68, -31301,14, -24804,27, -30981,62, -12101,99, -22382,97, -27139,78, -25658,55, 0,00, 0,00, 0,00
180, -30867,62, -31305,36, -24797,27, -30983,70, -12104,56, -22386,39, -27150,26, -25623,35, 0,00, 0,00, 0,00
181, -30875,04, -31303,30, -24810,93, -30977,57, -12101,14, -22388,29, -27147,69, -25603,95, 0,00, 0,00, 0,00
182, -30866,69, -31295,21, -24810,88, -30968,97, -12095,09, -22362,94, -27130,03, -25589,53, 0,00, 0,00, 0,00
183, -30864,74, -31294,86, -24780,48, -30968,81, -12093,08, -22342,85, -27125,29, -25578,38, 0,00, 0,00, 0,00
184, -30857,41, -31287,05, -24781,87, -30965,37, -12098,24, -22366,07, -27136,83, -25587,90, -0,10, 0,96, 0,26
185, -30853,74, -31288,71, -24799,44, -30960,09, -12096,25, -22384,80, -27133,21, -25594,89, 0,00, 0,00, 0,00
186, -30861,48, -31292,26, -24811,26, -30959,33, -12097,52, -22382,05, -27127,28, -25604,41, 0,00, 0,00, 0,00
187, -30862,73, -31295,06, -24809,68, -30955,64, -12098,35, -22356,26, -27127,71, -25613,71, 0,00, 0,00, 0,00
188, -30863,38, -31299,06, -24789,02, -30957,88, -12101,26, -22344,68, -27136,71, -25633,92, 0,00, 0,00, 0,00
189, -30864,88, -31301,02, -24786,65, -30953,68, -12099,71, -22360,95, -27127,62, -25638,77, 0,00, 0,00, 0,00
190, -30860,36, -31292,91, -24792,80, -30944,54, -12092,94, -22370,36, -27112,53, -25626,39, 0,00, 0,00, 0,00
191, -30851,73, -31283,95, -24822,80, -30935,42, -12088,18, -22381,29, -27106,16, -25616,57, 0,00, 0,00, 0,00
192, -30846,68, -31280,08, -24839,85, -30928,04, -12083,40, -22363,57, -27110,61, -25603,68, 0,00, 0,00, 0,00
193, -30843,95, -31287,12, -24814,23, -30928,73, -12084,16, -22345,08, -27118,28, -25597,73, 0,00, 0,00, 0,00
194, -30842,25, -31284,66, -24809,65, -30924,02, -12084,49, -22359,84, -27121,87, -25596,90, -0,10, 0,96, 0,26
195, -30855,96, -31283,54, -24817,61, -30923,75, -12085,83, -22373,36, -27125,74, -25604,71, 0,00, 0,00, 0,00
196, -30847,08, -31279,52, -24831,24, -30920,42, -12085,39, -22376,11, -27130,12, -25604,97, 0,00, 0,00, 0,00
197, -30849,45, -31282,94, -24828,83, -30924,31, -12085,41, -22350,43, -27123,97, -25598,49, 0,00, 0,00, 0,00
198, -30854,03, -31280,68, -24807,51, -30924,26, -12084,56, -22340,34, -27125,79, -25604,23, 0,00, 0,00, 0,00
199, -30857,30, -31283,68, -24801,09, -30922,83, -12080,09, -22355,34, -27119,24, -25607,28, 0,00, 0,00, 0,00
200, -30867,13, -31286,54, -24799,82, -30931,24, -12082,68, -22364,10, -27126,12, -25615,37, 0,00, 0,00, 0,00
201, -30869,05, -31282,96, -24814,28, -30937,34, -12086,55, -22370,77, -27123,71, -25632,18, 0,00, 0,00, 0,00
202, -30863,91, -31285,38, -24833,14, -30934,90, -12083,06, -22359,59, -27108,35, -25630,90, 0,00, 0,00, 0,00
203, -30871,94, -31297,22, -24818,30, -30941,43, -12085,61, -22349,15, -27107,66, -25634,97, 0,00, 0,00, 0,00
204, -30869,52, -31296,58, -24814,19, -30938,75, -12087,89, -22366,36, -27118,39, -25657,88, -0,10, 0,97, 0,26
205, -30862,48, -31296,26, -24840,48, -30932,00, -12087,64, -22395,49, -27132,27, -25657,03, 0,00, 0,00, 0,00
206, -30860,61, -31296,20, -24856,03, -30929,20, -12081,90, -22390,97, -27124,40, -25628,38, 0,00, 0,00, 0,00
207, -30857,74, -31295,91, -24826,78, -30929,92, -12079,08, -22341,55, -27114,86, -25597,24, 0,00, 0,00, 0,00
208, -30854,66, -31298,86, -24795,24, -30932,64, -12080,74, -22326,69, -27105,00, -25586,85, 0,00, 0,00, 0,00
209, -30858,97, -31301,31, -24785,80, -30931,39, -12080,94, -22343,94, -27110,29, -25591,38, 0,00, 0,00, 0,00
210, -30856,74, -31304,11, -24798,88, -30929,98, -12084,63, -22365,40, -27111,50, -25602,78, 0,00, 0,00, 0,00
211, -30856,07, -31296,55, -24831,18, -30921,78, -12082,50, -22379,04, -27098,52, -25604,39, 0,00, 0,00, 0,00
212, -30852,20, -31285,94, -24835,07, -30917,71, -12077,94, -22353,17, -27100,73, -25611,75, 0,00, 0,00, 0,00
213, -30850,81, -31282,67, -24811,64, -30921,42, -12083,69, -22343,50, -27117,52, -25628,06, 0,00, 0,00, 0,00
214, -30847,26, -31281,44, -24795,48, -30921,45, -12086,06, -22353,55, -27121,34, -25623,97, -0,11, 0,96, 0,27
215, -30838,75, -31276,28, -24799,53, -30915,10, -12084,00, -22365,33, -27116,04, -25606,94, 0,00, 0,00, 0,00
216, -30839,19, -31276,19, -24812,36, -30914,63, -12082,93, -22365,94, -27115,62, -25600,62, 0,00, 0,00, 0,00
217, -30844,04, -31277,94, -24801,74, -30918,00, -12083,98, -22337,46, -27126,05, -25609,78, 0,00, 0,00, 0,00
218, -30846,12, -31279,16, -24776,51, -30922,32, -12090,13, -22323,83, -27137,79, -25619,14, 0,00, 0,00, 0,00
219, -30848,69, -31276,82, -24778,27, -30920,84, -12096,58, -22345,42, -27148,07, -25629,40, 0,00, 0,00, 0,00
220, -30843,51, -31275,21, -24788,82, -30915,57, -12086,08, -22359,50, -27133,41, -25620,91, 0,00, 0,00, 0,00
221, -30845,00, -31278,74, -24808,69, -30919,50, -12086,79, -22366,03, -27139,35, -25619,50, 0,00, 0,00, 0,00
222, -30846,48, -31273,44, -24805,18, -30921,36, -12086,26, -22340,50, -27158,89, -25626,54, 0,00, 0,00, 0,00
223, -30845,81, -31282,72, -24781,54, -30927,13, -12084,05, -22329,77, -27133,03, -25642,39, 0,00, 0,00, 0,00
224, -30851,42, -31290,21, -24772,39, -30924,80, -12080,04, -22343,61, -27107,03, -25642,19, -0,10, 0,97, 0,26
225, -30857,28, -31288,11, -24798,72, -30923,68, -12083,06, -22368,44, -27119,28, -25632,69, 0,00, 0,00, 0,00
226, -30860,40, -31287,26, -24816,47, -30926,65, -12084,29, -22369,09, -27119,55, -25613,15, 0,00, 0,00, 0,00
227, -30863,00, -31289,56, -24793,96, -30929,20, -12080,02, -22327,54, -27101,91, -25601,75, 0,00, 0,00, 0,00
228, -30856,43, -31289,78, -24791,93, -30924,89, -12085,57, -22332,65, -27116,35, -25632,71, 0,00, 0,00, 0,00
229, -30863,89, -31294,79, -24784,33, -30929,56, -12095,91, -22348,59, -27145,54, -25654,79, 0,00, 0,00, 0,00
230, -30858,06, -31288,73, -24781,42, -30921,20, -12093,12, -22355,77, -27143,89, -25637,47, 0,00, 0,00, 0,00
231, -30849,52, -31280,01, -24796,04, -30909,51, -12084,65, -22357,46, -27115,39, -25602,04, 0,00, 0,00, 0,00
232, -30856,38, -31283,19, -24776,19, -30914,21, -12085,83, -22318,15, -27114,63, -25578,93, 0,00, 0,00, 0,00
233, -30856,69, -31286,81, -24765,51, -30917,31, -12098,10, -22317,10, -27125,94, -25594,60, 0,00, 0,00, 0,00
234, -30845,21, -31279,10, -24758,38, -30911,43, -12098,17, -22330,40, -27123,97, -25614,29, -0,10, 0,97, 0,26
235, -30855,91, -31283,21, -24767,90, -30916,69, -12104,30, -22349,53, -27129,00, -25632,69, 0,00, 0,00, 0,00
236, -30853,83, -31280,06, -24782,85, -30915,28, -12103,07, -22351,10, -27137,12, -25622,74, 0,00, 0,00, 0,00
237, -30851,89, -31280,17, -24763,63, -30916,87, -12101,52, -22315,02, -27149,10, -25621,24, 0,00, 0,00, 0,00
238, -30851,51, -31282,52, -24742,60, -30917,29, -12108,72, -22311,76, -27170,53, -25634,01, 0,00, 0,00, 0,00
239, -30843,78, -31280,28, -24745,75, -30914,07, -12102,37, -22335,52, -27150,42, -25631,62, 0,00, 0,00, 0,00
240, -30832,31, -31273,20, -24777,82, -30906,38, -12095,76, -22364,73, -27120,44, -25633,94, 0,00, 0,00, 0,00
241, -30841,58, -31274,27, -24804,49, -30902,31, -12086,86, -22363,30, -27112,49, -25608,62, 0,00, 0,00, 0,00
242, -30849,34, -31279,97, -24786,34, -30906,25, -12081,81, -22323,78, -27115,82, -25602,98, 0,00, 0,00, 0,00
243, -30853,01, -31275,19, -24758,18, -30907,28, -12082,08, -22308,47, -27122,10, -25612,33, -0,10, 0,97, 0,25
244, -30849,97, -31275,88, -24754,91, -30902,34, -12079,22, -22325,55, -27112,31, -25608,24, 0,00, 0,00, 0,00
245, -30846,46, -31278,85, -24769,35, -30898,89, -12076,20, -22342,47, -27107,72, -25605,76, 0,00, 0,00, 0,00
246, -30848,76, -31282,29, -24790,54, -30901,93, -12078,79, -22350,63, -27117,69, -25610,92, 0,00, 0,00, 0,00
247, -30845,00, -31281,98, -24782,70, -30904,79, -12082,64, -22323,83, -27127,64, -25612,73, 0,00, 0,00, 0,00
248, -30845,50, -31289,40, -24755,32, -30905,55, -12085,01, -22313,25, -27144,67, -25617,82, 0,00, 0,00, 0,00
249, -30857,86, -31296,11, -24734,46, -30899,07, -12079,98, -22317,61, -27138,46, -25610,74, 0,00, 0,00, 0,00
250, -30853,97, -31291,84, -24752,90, -30898,18, -12075,60, -22334,55, -27119,15, -25624,73, 0,00, 0,00, 0,00
251, -30859,26, -31296,35, -24764,55, -30907,61, -12075,91, -22340,50, -27094,38, -25647,11, 0,00, 0,00, 0,00
252, -30870,31, -31299,75, -24762,71, -30905,02, -12074,93, -22320,76, -27094,27, -25626,14, 0,00, 0,00, 0,00
253, -30873,17, -31307,66, -24755,25, -30903,81, -12074,97, -22314,60, -27106,32, -25606,47, -0,11, 0,97, 0,26
254, -30863,76, -31310,23, -24749,57, -30898,25, -12070,77, -22325,12, -27097,51, -25597,13, 0,00, 0,00, 0,00
255, -30877,75, -31317,30, -24740,92, -30896,61, -12067,37, -22323,40, -27094,20, -25581,26, 0,00, 0,00, 0,00
0, -30885,91, -31319,78, -24743,36, -30905,42, -12075,93, -22321,48, -27104,37, -25585,30, 0,00, 0,00, 0,00
1, -30886,82, -31318,93, -24743,34, -30906,96, -12086,86, -22306,12, -27130,64, -25609,11, 0,00, 0,00, 0,00
2, -30887,40, -31317,30, -24726,35, -30902,92, -12086,64, -22301,07, -27131,96, -25603,07, 0,00, 0,00, 0,00
3, -30887,83, -31314,88, -24708,53, -30904,46, -12089,41, -22312,29, -27127,78, -25612,13, 0,00, 0,00, 0,00
4, -30874,84, -31315,37, -24730,44, -30895,68, -12086,10, -22339,36, -27120,98, -25609,38, 0,00, 0,00, 0,00
5, -30888,12, -31325,12, -24747,27, -30895,77, -12084,16, -22342,60, -27115,97, -25612,73, 0,00, 0,00, 0,00
6, -30894,13, -31330,13, -24749,10, -30898,51, -12089,88, -22323,54, -27124,24, -25622,72, 0,00, 0,00, 0,00
7, -30888,81, -31327,33, -24725,61, -30897,31, -12089,66, -22309,92, -27129,47, -25631,37, -0,10, 0,97, 0,26
8, -30886,11, -31318,73, -24709,47, -30894,51, -12091,65, -22318,91, -27142,82, -25641,43, 0,00, 0,00, 0,00
9, -30873,61, -31313,83, -24712,36, -30886,42, -12085,61, -22329,73, -27146,39, -25613,78, 0,00, 0,00, 0,00
10, -30873,95, -31316,94, -24737,61, -30883,34, -12083,69, -22339,34, -27145,61, -25595,56, 0,00, 0,00, 0,00
11, -30882,44, -31320,60, -24729,39, -30885,19, -12082,75, -22311,71, -27145,52, -25601,96, 0,00, 0,00, 0,00
12, -30880,65, -31316,34, -24711,78, -30883,58, -12078,44, -22303,11, -27134,39, -25610,70, 0,00, 0,00, 0,00
13, -30888,10, -31320,09, -24686,63, -30889,91, -12079,20, -22305,97, -27131,93, -25618,72, 0,00, 0,00, 0,00
14, -30882,67, -31314,99, -24713,85, -30888,48, -12084,63, -22339,61, -27147,47, -25641,23, 0,00, 0,00, 0,00
15, -30886,22, -31322,91, -24719,20, -30890,74, -12075,02, -22334,02, -27114,27, -25627,15, 0,00, 0,00, 0,00
16, -30888,03, -31326,73, -24703,79, -30887,90, -12064,06, -22297,27, -27078,18, -25583,43, 0,00, 0,00, 0,00
17, -30888,30, -31321,92, -24696,91, -30886,36, -12060,75, -22290,66, -27078,38, -25578,80, -0,10, 0,96, 0,26
18, -30882,62, -31324,05, -24675,48, -30888,17, -12057,36, -22289,52, -27085,98, -25576,92, 0,00, 0,00, 0,00
19, -30881,26, -31319,20, -24692,53, -30889,48, -12067,46, -22311,91, -27106,67, -25586,53, 0,00, 0,00, 0,00
20, -30880,63, -31314,84, -24724,25, -30889,08, -12068,71, -22327,02, -27121,07, -25596,59, 0,00, 0,00, 0,00
21, -30884,57, -31325,43, -24727,53, -30887,96, -12065,96, -22302,21, -27117,45, -25610,85, 0,00, 0,00, 0,00
22, -30890,65, -31332,03, -24687,05, -30891,32, -12064,55, -22276,46, -27112,26, -25626,47, 0,00, 0,00, 0,00
23, -30887,25, -31324,85, -24669,75, -30890,27, -12073,65, -22288,58, -27124,94, -25638,99, 0,00, 0,00, 0,00
24, -30878,96, -31315,02, -24686,27, -30887,83, -12076,25, -22310,24, -27111,17, -25639,42, 0,00, 0,00, 0,00
25, -30869,12, -31306,61, -24712,67, -30883,34, -12073,67, -22321,95, -27100,21, -25606,02, 0,00, 0,00, 0,00
26, -30885,53, -31314,66, -24703,62, -30887,58, -12077,23, -22290,48, -27114,30, -25581,10, 0,00, 0,00, 0,00
27, -30889,42, -31321,65, -24677,31, -30892,61, -12089,52, -22278,52, -27128,40, -25600,03, -0,10, 0,96, 0,26
28, -30885,24, -31319,69, -24665,53, -30889,37, -12095,69, -22293,85, -27140,52, -25613,00, 0,00, 0,00, 0,00
29, -30874,84, -31314,53, -24663,74, -30882,94, -12094,01, -22303,22, -27146,77, -25610,02, 0,00, 0,00, 0,00
30, -30868,67, -31306,34, -24681,76, -30879,43, -12091,49, -22313,68, -27146,15, -25608,19, 0,00, 0,00, 0,00
31, -30873,70, -31305,07, -24677,38, -30878,29, -12085,86, -22287,64, -27139,17, -25601,15, 0,00, 0,00, 0,00
32, -30877,55, -31307,13, -24644,45, -30880,54, -12082,95, -22269,71, -27116,06, -25608,48, 0,00, 0,00, 0,00
33, -30866,75, -31298,07, -24658,69, -30876,30, -12087,24, -22303,96, -27120,51, -25629,96, 0,00, 0,00, 0,00
34, -30857,19, -31291,61, -24675,36, -30872,81, -12083,29, -22323,02, -27128,63, -25622,68, 0,00, 0,00, 0,00
35, -30854,73, -31280,06, -24705,31, -30870,73, -12089,19, -22338,27, -27163,94, -25628,84, 0,00, 0,00, 0,00
36, -30857,63, -31281,56, -24703,86, -30874,49, -12086,73, -22312,11, -27160,30, -25621,40, 0,00, 0,00, 0,00
37, -30865,79, -31295,68, -24651,78, -30880,32, -12079,60, -22278,74, -27128,67, -25614,45, -0,10, 0,96, 0,27
38, -30874,73, -31300,06, -24640,09, -30878,17, -12079,35, -22293,61, -27111,86, -25618,76, 0,00, 0,00, 0,00
39, -30873,48, -31299,91, -24643,51, -30878,64, -12079,53, -22310,21, -27111,70, -25620,55, 0,00, 0,00, 0,00
40, -30872,45, -31301,14, -24652,23, -30874,42, -12074,34, -22309,68, -27104,80, -25600,12, 0,00, 0,00, 0,00
41, -30878,51, -31305,70, -24630,35, -30878,98, -12068,51, -22270,29, -27095,88, -25586,96, 0,00, 0,00, 0,00
42, -30881,37, -31313,77, -24606,61, -30883,36, -12075,15, -22263,34, -27101,47, -25600,62, 0,00, 0,00, 0,00
43, -30873,57, -31309,16, -24621,14, -30881,41, -12079,20, -22300,54, -27112,29, -25630,05, 0,00, 0,00, 0,00
44, -30869,70, -31301,96, -24648,21, -30878,91, -12079,20, -22329,64, -27112,78, -25613,80, 0,00, 0,00, 0,00
45, -30869,21, -31305,72, -24648,47, -30882,29, -12073,79, -22319,74, -27106,38, -25598,24, 0,00, 0,00, 0,00
46, -30868,88, -31304,69, -24637,03, -30883,47, -12074,90, -22295,24, -27111,32, -25606,00, 0,00, 0,00, 0,00
47, -30874,60, -31302,05, -24651,45, -30879,34, -12078,01, -22308,52, -27121,11, -25600,10, -0,10, 0,96, 0,27
48, -30877,50, -31309,67, -24637,48, -30884,01, -12078,01, -22314,73, -27127,66, -25604,62, 0,00, 0,00, 0,00
49, -30871,60, -31303,93, -24652,12, -30881,82, -12080,98, -22334,18, -27135,82, -25615,54, 0,00, 0,00, 0,00
50, -30868,47, -31296,73, -24658,15, -30878,87, -12071,98, -22330,46, -27107,50, -25600,28, 0,00, 0,00, 0,00
51, -30875,47, -31296,84, -24643,91, -30879,96, -12071,53, -22301,83, -27102,52, -25599,12, 0,00, 0,00, 0,00
52, -30873,81, -31300,73, -24618,57, -30878,80, -12076,94, -22289,31, -27117,07, -25605,26, 0,00, 0,00, 0,00
53, -30861,21, -31293,38, -24621,09, -30873,86, -12074,97, -22314,88, -27126,46, -25616,82, 0,00, 0,00, 0,00
54, -30843,82, -31285,15, -24655,45, -30869,26, -12072,38, -22351,23, -27130,30, -25630,01, 0,00, 0,00, 0,00
55, -30860,65, -31290,77, -24645,75, -30875,34, -12063,57, -22331,87, -27115,06, -25611,50, 0,00, 0,00, 0,00
56, -30872,97, -31298,37, -24621,03, -30883,00, -12066,79, -22295,28, -27110,36, -25595,52, -0,11, 0,96, 0,26
57, -30871,92, -31299,59, -24614,21, -30884,16, -12068,31, -22296,33, -27106,94, -25606,20, 0,00, 0,00, 0,00
58, -30871,71, -31298,74, -24592,39, -30883,81, -12070,19, -22302,57, -27114,95, -25600,44, 0,00, 0,00, 0,00
59, -30868,65, -31290,16, -24604,89, -30881,59, -12072,38, -22323,25, -27120,60, -25606,52, 0,00, 0,00, 0,00
60, -30864,32, -31296,20, -24625,36, -30880,32, -12072,40, -22330,20, -27136,47, -25622,72, 0,00, 0,00, 0,00
61, -30875,56, -31302,14, -24617,90, -30881,19, -12070,30, -22301,97, -27141,34, -25625,13, 0,00, 0,00, 0,00
62, -30877,17, -31306,05, -24604,13, -30879,47, -12069,96, -22295,80, -27120,85, -25613,06, 0,00, 0,00, 0,00
63, -30877,21, -31304,38, -24598,74, -30880,43, -12068,73, -22308,29, -27108,44, -25604,50, 0,00, 0,00, 0,00
64, -30869,19, -31295,19, -24600,04, -30876,52, -12065,16, -22314,91, -27102,70, -25595,07, 0,00, 0,00, 0,00
65, -30855,67, -31293,16, -24617,90, -30871,51, -12062,05, -22318,48, -27084,41, -25590,53, 0,00, 0,00, 0,00
66, -30873,17, -31304,87, -24603,10, -30879,98, -12065,27, -22287,62, -27095,66, -25597,13, -0,10, 0,96, 0,26
67, -30879,85, -31305,56, -24586,31, -30879,29, -12071,06, -22286,28, -27111,10, -25603,59, 0,00, 0,00, 0,00
68, -30869,97, -31297,89, -24594,05, -30875,54, -12070,68, -22315,47, -27112,26, -25619,46, 0,00, 0,00, 0,00
69, -30864,43, -31298,05, -24605,00, -30876,45, -12064,29, -22329,06, -27098,18, -25613,60, 0,00, 0,00, 0,00
70, -30865,28, -31308,33, -24602,10, -30883,76, -12064,38, -22315,80, -27098,65, -25595,12, 0,00, 0,00, 0,00
71, -30863,80, -31303,77, -24604,55, -30883,54, -12065,16, -22294,14, -27118,83, -25602,96, 0,00, 0,00, 0,00
72, -30869,93, -31299,39, -24597,69, -30881,55, -12068,40, -22290,75, -27137,19, -25622,56, 0,00, 0,00, 0,00
73, -30866,57, -31294,01, -24599,44, -30874,64, -12061,27, -22307,98, -27115,73, -25630,83, 0,00, 0,00, 0,00
74, -30863,38, -31293,27, -24614,28, -30868,65, -12053,00, -22319,40, -27093,64, -25603,30, 0,00, 0,00, 0,00
75, -30863,87, -31295,99, -24631,80, -30872,88, -12055,23, -22317,37, -27104,24, -25589,60, 0,00, 0,00, 0,00
76, -30857,10, -31297,76, -24626,28, -30875,94, -12057,94, -22289,63, -27122,75, -25601,55, -0,11, 0,96, 0,26
77, -30853,25, -31297,09, -24602,52, -30874,44, -12059,03, -22278,23, -27121,65, -25614,25, 0,00, 0,00, 0,00
78, -30865,99, -31300,24, -24592,82, -30878,51, -12058,77, -22292,02, -27106,59, -25619,72, 0,00, 0,00, 0,00
79, -30865,28, -31304,56, -24596,55, -30881,13, -12059,70, -22308,65, -27098,63, -25619,14, 0,00, 0,00, 0,00
80, -30855,60, -31295,53, -24628,29, -30872,56, -12055,88, -22323,02, -27099,52, -25604,37, 0,00, 0,00, 0,00
81, -30861,21, -31303,55, -24618,75, -30874,62, -12053,58, -22287,79, -27086,98, -25579,31, 0,00, 0,00, 0,00
82, -30854,95, -31300,06, -24607,41, -30871,94, -12053,69, -22282,05, -27094,87, -25587,94, 0,00, 0,00, 0,00
83, -30859,96, -31295,55, -24598,14, -30876,19, -12055,03, -22297,18, -27111,84, -25600,97, 0,00, 0,00, 0,00
84, -30858,62, -31292,44, -24623,29, -30874,60, -12053,83, -22325,62, -27099,95, -25591,21, 0,00, 0,00, 0,00
85, -30856,00, -31294,16, -24634,77, -30869,21, -12043,48, -22320,23, -27075,18, -25574,11, 0,00, 0,00, 0,00
86, -30858,93, -31295,23, -24606,83, -30869,48, -12039,07, -22274,43, -27081,13, -25573,44, -0,11, 0,96, 0,26
87, -30861,66, -31287,12, -24583,32, -30866,80, -12042,69, -22262,54, -27095,92, -25573,55, 0,00, 0,00, 0,00
88, -30856,96, -31286,29, -24570,06, -30866,42, -12042,94, -22272,53, -27088,28, -25582,80, 0,00, 0,00, 0,00
89, -30854,57, -31294,27, -24586,43, -30862,33, -12039,70, -22292,45, -27080,75, -25591,32, 0,00, 0,00, 0,00
90, -30858,59, -31290,00, -24616,15, -30858,64, -12040,12, -22303,22, -27086,33, -25589,71, 0,00, 0,00, 0,00
91, -30861,25, -31296,60, -24605,65, -30867,00, -12040,37, -22267,81, -27085,96, -25599,47, 0,00, 0,00, 0,00
92, -30864,43, -31300,40, -24555,94, -30871,24, -12035,88, -22236,99, -27073,62, -25595,52, 0,00, 0,00, 0,00
93, -30862,77, -31294,30, -24548,29, -30870,89, -12042,09, -22257,17, -27088,86, -25589,37, 0,00, 0,00, 0,00
94, -30863,15, -31295,84, -24581,87, -30873,17, -12051,34, -22295,93, -27111,68, -25592,79, 0,00, 0,00, 0,00
95, -30862,26, -31293,92, -24611,04, -30873,64, -12052,78, -22310,01, -27122,72, -25590,94, 0,00, 0,00, 0,00
96, -30859,06, -31293,25, -24587,66, -30874,89, -12044,28, -22269,60, -27102,14, -25580,05, -0,10, 0,97, 0,26
97, -30860,22, -31291,64, -24566,09, -30878,96, -12047,08, -22264,88, -27093,06, -25589,24, 0,00, 0,00, 0,00
98, -30859,40, -31289,92, -24561,41, -30882,85, -12051,86, -22287,50, -27096,62, -25603,92, 0,00, 0,00, 0,00
99, -30858,46, -31281,33, -24594,09, -30879,18, -12054,54, -22324,16, -27105,56, -25618,81, 0,00, 0,00, 0,00
100, -30862,75, -31290,29, -24600,33, -30889,15, -12057,45, -22325,08, -27120,51, -25621,22, 0,00, 0,00, 0,00
101, -30854,23, -31296,38, -24595,75, -30889,86, -12059,37, -22305,27, -27113,76, -25599,38, 0,00, 0,00, 0,00
102, -30860,00, -31289,36, -24572,77, -30886,33, -12052,75, -22294,90, -27082,85, -25590,78, 0,00, 0,00, 0,00
103, -30869,81, -31300,46, -24552,63, -30893,33, -12053,54, -22304,51, -27086,42, -25590,29, 0,00, 0,00, 0,00
104, -30862,44, -31300,82, -24556,77, -30891,14, -12054,05, -22323,02, -27091,45, -25578,13, 0,00, 0,00, 0,00
105, -30851,64, -31297,60, -24593,78, -30886,02, -12054,99, -22345,13, -27096,21, -25596,10, 0,00, 0,00, 0,00
106, -30853,47, -31300,02, -24588,24, -30889,57, -12048,28, -22313,70, -27096,24, -25600,57, -0,10, 0,97, 0,26
107, -30864,96, -31300,64, -24555,47, -30895,25, -12046,56, -22288,91, -27092,59, -25582,11, 0,00, 0,00, 0,00
108, -30869,14, -31299,13, -24539,33, -30897,75, -12048,57, -22297,00, -27104,57, -25575,63, 0,00, 0,00, 0,00
109, -30863,38, -31298,79, -24556,03, -30898,63, -12050,65, -22317,14, -27113,69, -25573,77, 0,00, 0,00, 0,00
110, -30870,11, -31305,92, -24559,22, -30907,21, -12053,89, -22310,06, -27114,70, -25582,04, 0,00, 0,00, 0,00
111, -30866,48, -31313,03, -24553,48, -30911,70, -12050,70, -22282,16, -27097,35, -25575,24, 0,00, 0,00, 0,00
112, -30864,65, -31309,29, -24534,30, -30915,97, -12050,12, -22268,60, -27103,08, -25569,30, 0,00, 0,00, 0,00
113, -30868,85, -31298,23, -24547,15, -30912,48, -12051,34, -22297,14, -27098,56, -25577,05, 0,00, 0,00, 0,00
114, -30870,44, -31299,59, -24579,77, -30912,77, -12051,05, -22322,55, -27088,32, -25587,76, 0,00, 0,00, 0,00
115, -30873,03, -31306,34, -24578,92, -30920,31, -12053,58, -22311,04, -27100,64, -25589,04, 0,00, 0,00, 0,00
116, -30871,87, -31298,83, -24564,66, -30923,10, -12055,90, -22280,17, -27116,85, -25594,36, -0,10, 0,97, 0,27
117, -30869,37, -31295,32, -24552,92, -30917,74, -12054,59, -22276,22, -27116,98, -25604,01, 0,00, 0,00, 0,00
118, -30863,20, -31301,09, -24542,26, -30906,56, -12044,59, -22285,05, -27094,09, -25588,77, 0,00, 0,00, 0,00
119, -30856,45, -31288,42, -24568,61, -30897,71, -12040,59, -22310,26, -27090,02, -25561,92, 0,00, 0,00, 0,00
120, -30860,99, -31291,68, -24594,16, -30904,66, -12043,25, -22321,26, -27103,70, -25572,12, 0,00, 0,00, 0,00
121, -30865,12, -31299,26, -24574,87, -30912,82, -12051,30, -22291,04, -27121,87, -25589,60, 0,00, 0,00, 0,00
122, -30857,30, -31292,58, -24560,23, -30914,52, -12055,12, -22292,67, -27119,33, -25600,86, 0,00, 0,00, 0,00
123, -30855,96, -31295,28, -24532,31, -30916,91, -12052,17, -22298,93, -27091,36, -25580,99, 0,00, 0,00, 0,00
124, -30859,35, -31288,98, -24558,02, -30912,37, -12054,90, -22334,82, -27091,90, -25581,35, 0,00, 0,00, 0,00
125, -30869,93, -31293,80, -24578,38, -30913,62, -12058,16, -22348,14, -27104,71, -25584,10, 0,00, 0,00, 0,00
126, -30877,15, -31294,14, -24574,51, -30911,21, -12059,10, -22322,91, -27107,41, -25554,86, -0,10, 0,97, 0,26
127, -30870,04, -31290,77, -24570,76, -30905,40, -12057,25, -22320,54, -27099,30, -25562,55, 0,00, 0,00, 0,00
128, -30867,11, -31291,90, -24564,59, -30907,97, -12060,20, -22333,35, -27104,10, -25583,16, 0,00, 0,00, 0,00
129, -30874,04, -31294,25, -24572,75, -30911,25, -12062,90, -22346,78, -27110,97, -25586,46, 0,00, 0,00, 0,00
130, -30872,16, -31290,52, -24600,91, -30910,74, -12065,94, -22360,21, -27117,34, -25584,90, 0,00, 0,00, 0,00
131, -30875,83, -31291,84, -24615,57, -30911,32, -12064,02, -22340,90, -27115,37, -25579,07, 0,00, 0,00, 0,00
132, -30889,98, -31312,27, -24577,29, -30922,61, -12060,69, -22306,30, -27099,79, -25571,65, 0,00, 0,00, 0,00
133, -30882,55, -31312,00, -24555,42, -30915,72, -12054,74, -22309,05, -27094,09, -25560,74, 0,00, 0,00, 0,00
134, -30869,70, -31304,94, -24580,91, -30908,86, -12049,07, -22330,49, -27096,17, -25550,77, 0,00, 0,00, 0,00
135, -30878,64, -31307,95, -24583,14, -30912,69, -12046,72, -22321,50, -27097,04, -25558,64, -0,10, 0,97, 0,27
136, -30881,59, -31308,51, -24583,83, -30908,75, -12040,30, -22292,29, -27071,94, -25556,74, 0,00, 0,00, 0,00
137, -30892,32, -31313,97, -24538,66, -30910,20, -12038,47, -22254,63, -27064,97, -25553,74, 0,00, 0,00, 0,00
138, -30886,11, -31309,81, -24531,80, -30906,65, -12044,28, -22271,86, -27087,72, -25560,16, 0,00, 0,00, 0,00
139, -30881,01, -31299,44, -24563,14, -30898,60, -12043,05, -22306,01, -27098,65, -25561,70, 0,00, 0,00, 0,00
140, -30885,01, -31297,67, -24564,21, -30897,69, -12035,30, -22292,00, -27082,78, -25550,81, 0,00, 0,00, 0,00
141, -30880,70, -31297,60, -24551,45, -30896,95, -12040,06, -22260,24, -27093,02, -25558,26, 0,00, 0,00, 0,00
142, -30869,97, -31296,60, -24543,44, -30889,60, -12043,50, -22255,05, -27107,12, -25571,27, 0,00, 0,00, 0,00
143, -30873,50, -31298,16, -24544,36, -30887,90, -12047,52, -22274,90, -27119,01, -25590,42, 0,00, 0,00, 0,00
144, -30867,91, -31290,14, -24547,89, -30882,94, -12047,39, -22288,04, -27117,27, -25599,23, 0,00, 0,00, 0,00
145, -30860,36, -31286,12, -24573,11, -30880,34, -12049,00, -22298,57, -27107,84, -25585,84, -0,10, 0,97, 0,27
146, -30867,27, -31293,76, -24576,39, -30879,65, -12047,23, -22272,33, -27096,55, -25563,06, 0,00, 0,00, 0,00
147, -30871,89, -31302,70, -24549,17, -30879,80, -12047,28, -22250,07, -27095,81, -25553,29, 0,00, 0,00, 0,00
148, -30874,24, -31301,65, -24537,32, -30881,55, -12051,03, -22260,75, -27104,75, -25561,72, 0,00, 0,00, 0,00
149, -30873,90, -31296,24, -24546,71, -30881,35, -12051,14, -22274,56, -27098,45, -25558,50, 0,00, 0,00, 0,00
150, -30870,37, -31293,25, -24552,03, -30880,70, -12046,81, -22265,64, -27090,87, -25545,38, 0,00, 0,00, 0,00
151, -30872,77, -31293,51, -24530,81, -30883,00, -12046,72, -22225,86, -27088,23, -25554,32, 0,00, 0,00, 0,00
152, -30875,51, -31294,21, -24513,47, -30882,33, -12050,29, -22215,04, -27087,34, -25576,92, 0,00, 0,00, 0,00
153, -30879,80, -31301,34, -24492,88, -30880,72, -12049,02, -22216,76, -27092,75, -25570,71, 0,00, 0,00, 0,00
154, -30875,49, -31305,09, -24510,12, -30878,84, -12049,31, -22236,48, -27092,95, -25567,29, 0,00, 0,00, 0,00
155, -30867,06, -31302,43, -24541,99, -30874,96, -12047,43, -22248,97, -27085,82, -25561,54, -0,10, 0,96, 0,26
156, -30872,43, -31298,57, -24532,11, -30874,69, -12043,16, -22210,57, -27087,65, -25534,52, 0,00, 0,00, 0,00
157, -30876,65, -31300,26, -24489,02, -30877,06, -12043,57, -22178,34, -27089,33, -25532,78, 0,00, 0,00, 0,00
158, -30878,76, -31302,72, -24477,75, -30872,29, -12043,75, -22190,05, -27088,35, -25541,83, 0,00, 0,00, 0,00
159, -30876,97, -31292,20, -24492,30, -30866,73, -12042,25, -22208,71, -27085,42, -25545,72, 0,00, 0,00, 0,00
160, -30870,04, -31291,57, -24512,71, -30867,18, -12044,89, -22219,89, -27094,65, -25556,65, 0,00, 0,00, 0,00
161, -30868,41, -31295,28, -24511,68, -30867,89, -12045,06, -22197,05, -27113,38, -25566,80, 0,00, 0,00, 0,00
162, -30871,76, -31295,48, -24484,70, -30869,99, -12044,77, -22181,89, -27106,92, -25575,83, 0,00, 0,00, 0,00
163, -30876,07, -31292,20, -24461,48, -30868,47, -12042,96, -22188,17, -27087,86, -25567,20, 0,00, 0,00, 0,00
164, -30866,73, -31282,00, -24466,38, -30862,06, -12041,93, -22204,83, -27083,09, -25568,90, 0,00, 0,00, 0,00
165, -30858,53, -31276,04, -24491,37, -30860,18, -12046,85, -22218,01, -27097,78, -25577,30, -0,11, 0,96, 0,26
166, -30860,18, -31276,95, -24487,83, -30863,09, -12050,41, -22196,55, -27098,81, -25581,10, 0,00, 0,00, 0,00
167, -30868,00, -31287,50, -24468,95, -30864,58, -12051,70, -22187,17, -27102,85, -25577,03, 0,00, 0,00, 0,00
168, -30859,85, -31287,57, -24458,15, -30862,97, -12058,34, -22203,39, -27124,56, -25580,14, 0,00, 0,00, 0,00
169, -30855,80, -31291,88, -24476,93, -30864,67, -12061,05, -22230,35, -27123,48, -25616,57, 0,00, 0,00, 0,00
170, -30863,24, -31284,10, -24512,26, -30858,24, -12055,23, -22249,35, -27095,50, -25624,87, 0,00, 0,00, 0,00
171, -30867,13, -31283,88, -24497,38, -30856,85, -12042,31, -22209,01, -27077,69, -25579,76, 0,00, 0,00, 0,00
172, -30865,77, -31286,83, -24466,22, -30864,54, -12049,31, -22190,19, -27110,34, -25575,56, 0,00, 0,00, 0,00
173, -30868,27, -31292,13, -24441,39, -30869,19, -12052,35, -22192,80, -27119,37, -25562,59, 0,00, 0,00, 0,00
174, -30861,21, -31293,02, -24465,55, -30862,15, -12045,38, -22222,62, -27094,27, -25548,18, 0,00, 0,00, 0,00
175, -30856,27, -31291,10, -24493,09, -30859,51, -12041,15, -22231,60, -27086,45, -25537,89, -0,11, 0,97, 0,26
176, -30858,19, -31286,90, -24496,86, -30862,42, -12040,24, -22208,25, -27090,63, -25535,12, 0,00, 0,00, 0,00
177, -30871,56, -31297,52, -24468,52, -30869,26, -12040,21, -22188,11, -27080,93, -25543,33, 0,00, 0,00, 0,00
178, -30867,67, -31297,43, -24453,50, -30867,58, -12038,25, -22196,35, -27073,62, -25551,33, 0,00, 0,00, 0,00
179, -30872,97, -31297,96, -24453,84, -30874,35, -12041,91, -22209,52, -27081,08, -25560,98, 0,00, 0,00, 0,00
180, -30867,49, -31300,22, -24488,28, -30872,03, -12042,69, -22229,28, -27082,54, -25571,67, 0,00, 0,00, 0,00
181, -30861,83, -31302,90, -24486,56, -30873,57, -12036,66, -22199,84, -27090,65, -25577,57, 0,00, 0,00, 0,00
182, -30877,01, -31305,88, -24434,95, -30882,06, -12041,80, -22164,10, -27106,81, -25579,76, 0,00, 0,00, 0,00
183, -30872,77, -31296,76, -24418,36, -30875,22, -12041,31, -22175,63, -27113,25, -25577,26, 0,00, 0,00, 0,00
184, -30860,47, -31287,05, -24459,80, -30865,61, -12038,58, -22216,22, -27113,38, -25588,54, 0,00, 0,00, 0,00
185, -30862,64, -31284,71, -24466,91, -30870,08, -12037,87, -22209,25, -27097,20, -25591,21, -0,11, 0,97, 0,26
186, -30860,31, -31281,69, -24455,54, -30864,72, -12032,64, -22176,39, -27071,22, -25572,45, 0,00, 0,00, 0,00
187, -30858,53, -31286,43, -24440,07, -30856,09, -12029,10, -22163,36, -27071,11, -25561,65, 0,00, 0,00, 0,00
188, -30860,14, -31287,28, -24432,31, -30855,78, -12035,01, -22170,96, -27094,49, -25566,73, 0,00, 0,00, 0,00
189, -30859,85, -31290,81, -24428,38, -30862,75, -12041,09, -22178,34, -27109,29, -25584,70, 0,00, 0,00, 0,00
190, -30853,41, -31291,59, -24436,54, -30865,72, -12041,64, -22184,57, -27099,07, -25582,33, 0,00, 0,00, 0,00
191, -30850,53, -31289,58, -24438,30, -30863,27, -12039,72, -22167,56, -27097,22, -25567,31, 0,00, 0,00, 0,00
192, -30853,47, -31291,08, -24423,88, -30867,22, -12048,39, -22164,66, -27117,96, -25578,46, 0,00, 0,00, 0,00
193, -30858,68, -31282,47, -24420,71, -30865,21, -12046,16, -22186,21, -27110,29, -25594,63, 0,00, 0,00, 0,00
194, -30858,91, -31273,35, -24447,24, -30859,60, -12043,81, -22213,16, -27101,62, -25601,93, 0,00, 0,00, 0,00
195, -30856,36, -31274,47, -24476,66, -30857,92, -12039,25, -22219,02, -27092,15, -25592,23, -0,10, 0,96, 0,27
196, -30855,67, -31281,51, -24465,77, -30861,43, -12033,02, -22177,51, -27069,26, -25554,17, 0,00, 0,00, 0,00
197, -30860,25, -31287,10, -24442,95, -30865,68, -12035,43, -22163,36, -27073,91, -25567,69, 0,00, 0,00, 0,00
198, -30859,96, -31287,88, -24442,35, -30865,10, -12037,58, -22182,34, -27081,62, -25570,93, 0,00, 0,00, 0,00
199, -30866,66, -31287,23, -24427,71, -30865,61, -12036,79, -22178,99, -27081,51, -25548,96, 0,00, 0,00, 0,00
200, -30861,88, -31279,12, -24448,25, -30860,43, -12034,76, -22181,94, -27081,24, -25526,41, 0,00, 0,00, 0,00
201, -30865,84, -31293,16, -24438,01, -30867,13, -12033,71, -22146,80, -27089,02, -25521,82, 0,00, 0,00, 0,00
202, -30863,44, -31300,62, -24411,43, -30867,67, -12032,44, -22130,13, -27081,13, -25525,09, 0,00, 0,00, 0,00
203, -30863,53, -31297,18, -24394,74, -30871,47, -12036,24, -22141,19, -27085,31, -25538,90, 0,00, 0,00, 0,00
204, -30868,05, -31294,83, -24414,32, -30871,92, -12038,83, -22169,62, -27090,07, -25557,95, -0,10, 0,97, 0,26
205, -30871,24, -31296,33, -24418,63, -30870,24, -12031,92, -22168,57, -27080,39, -25562,17, 0,00, 0,00, 0,00
206, -30873,75, -31299,77, -24410,65, -30872,18, -12037,82, -22146,62, -27092,75, -25563,40, 0,00, 0,00, 0,00
207, -30865,32, -31289,33, -24393,87, -30865,61, -12038,40, -22138,89, -27108,53, -25566,17, 0,00, 0,00, 0,00
208, -30864,65, -31287,12, -24375,11, -30863,76, -12031,68, -22145,35, -27095,83, -25568,32, 0,00, 0,00, 0,00
209, -30867,00, -31297,13, -24363,22, -30865,97, -12033,49, -22151,03, -27093,58, -25568,41, 0,00, 0,00, 0,00
210, -30861,97, -31294,70, -24376,41, -30860,81, -12032,48, -22157,31, -27100,39, -25566,28, 0,00, 0,00, 0,00
211, -30860,49, -31287,79, -24376,97, -30860,02, -12036,62, -22140,01, -27112,55, -25571,60, 0,00, 0,00, 0,00
212, -30848,42, -31272,99, -24373,10, -30852,09, -12031,34, -22141,12, -27087,70, -25568,21, 0,00, 0,00, 0,00
213, -30842,81, -31279,41, -24380,66, -30852,13, -12030,69, -22162,31, -27078,51, -25576,14, 0,00, 0,00, 0,00
214, -30844,47, -31281,51, -24408,37, -30853,32, -12037,33, -22192,58, -27094,76, -25594,29, -0,10, 0,96, 0,27
215, -30847,26, -31281,31, -24413,74, -30857,32, -12034,09, -22192,49, -27089,93, -25593,69, 0,00, 0,00, 0,00
216, -30841,67, -31276,30, -24401,26, -30852,36, -12025,77, -22164,46, -27078,18, -25568,99, 0,00, 0,00, 0,00
217, -30852,25, -31287,55, -24383,38, -30854,75, -12024,81, -22153,51, -27070,62, -25557,83, 0,00, 0,00, 0,00
218, -30854,06, -31292,62, -24374,60, -30856,07, -12028,08, -22169,78, -27073,24, -25552,11, 0,00, 0,00, 0,00
219, -30856,85, -31289,04, -24384,84, -30856,07, -12025,48, -22188,96, -27061,84, -25564,23, 0,00, 0,00, 0,00
220, -30855,26, -31286,81, -24379,83, -30853,36, -12022,13, -22179,08, -27066,93, -25556,92, 0,00, 0,00, 0,00
221, -30851,31, -31288,73, -24378,04, -30849,68, -12021,37, -22149,68, -27073,06, -25531,26, 0,00, 0,00, 0,00
222, -30856,34, -31295,08, -24336,15, -30852,60, -12023,94, -22119,67, -27067,54, -25522,38, 0,00, 0,00, 0,00
223, -30858,24, -31291,75, -24322,65, -30850,99, -12027,12, -22133,26, -27070,20, -25532,62, 0,00, 0,00, 0,00
224, -30856,65, -31294,41, -24336,49, -30848,69, -12028,17, -22155,79, -27067,11, -25549,76, -0,10, 0,97, 0,27
225, -30843,08, -31284,08, -24376,95, -30840,09, -12024,21, -22176,24, -27070,51, -25552,98, 0,00, 0,00, 0,00
226, -30838,90, -31280,24, -24392,79, -30832,49, -12012,41, -22155,34, -27062,69, -25534,72, 0,00, 0,00, 0,00
227, -30842,14, -31289,22, -24354,91, -30841,12, -12013,19, -22127,33, -27066,93, -25530,09, 0,00, 0,00, 0,00
228, -30843,33, -31282,47, -24338,03, -30844,13, -12019,23, -22142,11, -27073,68, -25545,05, 0,00, 0,00, 0,00
229, -30845,27, -31275,01, -24356,11, -30836,53, -12014,49, -22165,82, -27067,36, -25545,96, 0,00, 0,00, 0,00
230, -30842,17, -31284,60, -24379,14, -30834,74, -12012,07, -22177,04, -27071,13, -25553,32, 0,00, 0,00, 0,00
231, -30837,07, -31284,33, -24376,74, -30834,43, -12008,90, -22154,22, -27088,79, -25558,71, 0,00, 0,00, 0,00
232, -30833,61, -31275,43, -24360,52, -30829,42, -12007,71, -22146,35, -27087,70, -25569,93, 0,00, 0,00, 0,00
233, -30835,68, -31267,27, -24351,24, -30829,47, -12013,86, -22161,24, -27096,37, -25580,77, 0,00, 0,00, 0,00
234, -30838,63, -31265,42, -24367,96, -30825,29, -12019,11, -22184,82, -27119,68, -25580,95, -0,10, 0,97, 0,26
235, -30831,46, -31270,29, -24380,41, -30818,63, -12004,27, -22181,76, -27069,95, -25564,18, 0,00, 0,00, 0,00
236, -30836,98, -31277,82, -24347,24, -30823,63, -11997,77, -22131,06, -27045,12, -25532,96, 0,00, 0,00, 0,00
237, -30843,08, -31281,53, -24309,69, -30831,35, -12008,94, -22111,89, -27065,10, -25528,46, 0,00, 0,00, 0,00
238, -30837,52, -31276,88, -24319,57, -30828,75, -12014,17, -22145,84, -27066,06, -25553,21, 0,00, 0,00, 0,00
239, -30827,50, -31275,61, -24330,16, -30828,98, -12014,20, -22163,52, -27068,86, -25568,07, 0,00, 0,00, 0,00
240, -30836,94, -31272,15, -24340,78, -30832,42, -12020,32, -22165,60, -27095,52, -25565,01, 0,00, 0,00, 0,00
241, -30847,22, -31275,50, -24316,51, -30835,35, -12013,88, -22125,59, -27084,41, -25548,76, 0,00, 0,00, 0,00
242, -30844,60, -31266,31, -24284,99, -30833,16, -12009,57, -22109,45, -27059,40, -25545,99, 0,00, 0,00, 0,00
243, -30843,17, -31267,61, -24290,98, -30835,66, -12012,07, -22135,83, -27062,62, -25554,95, 0,00, 0,00, 0,00
244, -30845,94, -31289,45, -24304,93, -30843,28, -12014,75, -22156,59, -27062,84, -25575,45, -0,10, 0,96, 0,26
245, -30853,47, -31293,71, -24314,94, -30838,41, -12009,88, -22156,63, -27053,86, -25558,84, 0,00, 0,00, 0,00
246, -30853,43, -31283,28, -24331,08, -30826,77, -12008,38, -22141,62, -27057,03, -25556,67, 0,00, 0,00, 0,00
247, -30855,42, -31283,12, -24313,76, -30826,50, -12008,05, -22122,01, -27065,37, -25554,79, 0,00, 0,00, 0,00
248, -30852,71, -31281,89, -24297,66, -30827,88, -12009,06, -22124,63, -27062,62, -25536,11, 0,00, 0,00, 0,00
249, -30846,14, -31286,52, -24297,22, -30827,12, -12004,36, -22130,17, -27058,19, -25536,78, 0,00, 0,00, 0,00
250, -30843,13, -31282,63, -24317,11, -30825,67, -12009,01, -22138,44, -27067,98, -25548,42, 0,00, 0,00, 0,00
251, -30839,53, -31279,30, -24327,10, -30824,04, -12000,88, -22120,54, -27053,30, -25539,53, 0,00, 0,00, 0,00
252, -30851,29, -31285,38, -24285,75, -30832,08, -11999,80, -22093,89, -27045,14, -25526,72, 0,00, 0,00, 0,00
253, -30852,29, -31281,09, -24259,53, -30835,28, -12002,69, -22100,62, -27043,08, -25521,67, 0,00, 0,00, 0,00
254, -30839,51, -31262,87, -24284,46, -30825,71, -12005,43, -22135,69, -27052,23, -25530,09, -0,10, 0,96, 0,26
255, -30838,05, -31268,05, -24310,76, -30823,70, -12006,24, -22150,62, -27064,25, -25538,16, 0,00, 0,00, 0,00
0, -30839,44, -31272,35, -24290,85, -30828,64, -12008,50, -22118,91, -27079,81, -25540,96, 0,00, 0,00, 0,00
1, -30830,01, -31261,62, -24291,00, -30823,77, -12011,98, -22126,01, -27074,00, -25556,02, 0,00, 0,00, 0,00
2, -30828,91, -31260,57, -24295,72, -30817,06, -12009,39, -22147,52, -27075,63, -25565,30, 0,00, 0,00, 0,00
3, -30828,51, -31262,20, -24305,22, -30818,05, -12012,36, -22164,35, -27080,79, -25577,88, 0,00, 0,00, 0,00
4, -30821,87, -31257,01, -24315,37, -30816,33, -12008,65, -22165,60, -27060,54, -25553,27, 0,00, 0,00, 0,00
5, -30821,51, -31258,69, -24310,03, -30821,78, -12007,18, -22136,41, -27054,08, -25537,81, 0,00, 0,00, 0,00
6, -30841,36, -31266,76, -24268,74, -30831,79, -12012,25, -22114,55, -27060,00, -25558,26, 0,00, 0,00, 0,00
7, -30838,23, -31268,12, -24255,08, -30831,23, -12015,81, -22131,04, -27073,35, -25574,28, 0,00, 0,00, 0,00
8, -30833,34, -31258,94, -24272,81, -30831,91, -12016,77, -22158,87, -27071,38, -25579,45, -0,10, 0,96, 0,26
9, -30828,13, -31261,39, -24297,17, -30831,53, -12013,48, -22169,71, -27059,13, -25569,12, 0,00, 0,00, 0,00
10, -30832,64, -31265,57, -24299,74, -30832,38, -12012,94, -22147,47, -27066,15, -25547,06, 0,00, 0,00, 0,00
11, -30840,24, -31267,07, -24277,48, -30837,65, -12012,48, -22128,63, -27053,63, -25543,73, 0,00, 0,00, 0,00
12, -30843,01, -31273,38, -24263,91, -30837,99, -12013,86, -22137,30, -27051,40, -25560,92, 0,00, 0,00, 0,00
13, -30839,75, -31272,21, -24261,21, -30836,49, -12011,40, -22143,29, -27051,80, -25534,61, 0,00, 0,00, 0,00
14, -30836,31, -31269,89, -24282,78, -30830,25, -12011,51, -22155,56, -27059,18, -25530,86, 0,00, 0,00, 0,00
15, -30842,32, -31282,40, -24291,12, -30832,46, -12010,40, -22138,04, -27061,19, -25539,17, 0,00, 0,00, 0,00
16, -30835,24, -31284,04, -24255,40, -30833,49, -12009,39, -22115,82, -27052,74, -25546,84, 0,00, 0,00, 0,00
17, -30842,25, -31280,51, -24252,56, -30830,92, -12010,80, -22134,64, -27052,94, -25547,55, 0,00, 0,00, 0,00
18, -30851,46, -31278,05, -24259,35, -30829,45, -12007,38, -22149,10, -27051,44, -25538,37, -0,10, 0,96, 0,26
19, -30853,79, -31285,71, -24271,58, -30830,74, -12011,13, -22156,88, -27059,45, -25541,09, 0,00, 0,00, 0,00
20, -30846,77, -31281,80, -24276,03, -30826,88, -12011,71, -22142,44, -27067,94, -25545,85, 0,00, 0,00, 0,00
21, -30843,44, -31277,94, -24252,02, -30828,75, -12010,91, -22127,71, -27067,20, -25547,84, 0,00, 0,00, 0,00
22, -30841,36, -31278,38, -24231,28, -30832,33, -12010,87, -22136,65, -27059,36, -25555,60, 0,00, 0,00, 0,00
23, -30835,88, -31267,90, -24261,21, -30831,46, -12019,20, -22172,48, -27086,80, -25567,64, 0,00, 0,00, 0,00
24, -30837,07, -31267,88, -24288,03, -30833,98, -12020,14, -22183,86, -27086,96, -25563,73, 0,00, 0,00, 0,00
25, -30834,50, -31272,28, -24274,02, -30831,44, -12010,51, -22144,21, -27052,11, -25535,88, 0,00, 0,00, 0,00
26, -30830,30, -31265,73, -24254,12, -30827,01, -12008,65, -22129,46, -27044,87, -25530,70, 0,00, 0,00, 0,00
27, -30821,47, -31263,63, -24260,92, -30828,53, -12013,44, -22155,32, -27061,68, -25552,16, -0,10, 0,96, 0,27
28, -30833,36, -31268,73, -24261,46, -30834,92, -12012,03, -22164,37, -27063,25, -25544,71, 0,00, 0,00, 0,00
29, -30836,29, -31269,96, -24273,68, -30838,68, -12011,76, -22169,80, -27050,57, -25560,16, 0,00, 0,00, 0,00
30, -30838,23, -31274,18, -24269,39, -30844,71, -12012,41, -22144,32, -27048,20, -25587,27, 0,00, 0,00, 0,00
31, -30841,25, -31276,48, -24239,30, -30852,58, -12017,33, -22127,47, -27060,12, -25583,11, 0,00, 0,00, 0,00
32, -30832,58, -31274,92, -24240,96, -30849,97, -12017,24, -22152,79, -27067,45, -25560,11, 0,00, 0,00, 0,00
33, -30829,31, -31272,79, -24265,88, -30847,06, -12012,03, -22178,16, -27056,99, -25537,67, 0,00, 0,00, 0,00
34, -30827,17, -31264,23, -24271,36, -30844,54, -12005,88, -22172,13, -27039,57, -25528,04, 0,00, 0,00, 0,00
35, -30824,02, -31261,28, -24279,22, -30847,62, -12008,27, -22156,48, -27037,21, -25532,98, 0,00, 0,00, 0,00
36, -30823,30, -31263,81, -24273,12, -30845,29, -12010,46, -22153,60, -27049,61, -25551,60, 0,00, 0,00, 0,00
37, -30827,90, -31266,40, -24287,83, -30840,64, -12007,87, -22178,21, -27058,02, -25562,84, -0,10, 0,97, 0,26
38, -30829,11, -31275,86, -24268,65, -30847,22, -12004,27, -22170,27, -27064,61, -25551,57, 0,00, 0,00, 0,00
39, -30836,44, -31278,67, -24283,85, -30845,92, -12009,50, -22178,54, -27065,64, -25558,68, 0,00, 0,00, 0,00
40, -30843,30, -31275,72, -24276,14, -30845,96, -12006,51, -22149,21, -27056,94, -25560,04, 0,00, 0,00, 0,00
41, -30848,71, -31276,01, -24244,85, -30853,54, -12016,95, -22131,51, -27070,67, -25556,85, 0,00, 0,00, 0,00
42, -30841,07, -31276,10, -24239,04, -30845,07, -12012,43, -22148,59, -27056,09, -25541,27, 0,00, 0,00, 0,00
43, -30834,16, -31270,96, -24251,31, -30840,38, -12011,54, -22167,59, -27046,39, -25535,53, 0,00, 0,00, 0,00
44, -30827,70, -31264,26, -24277,23, -30837,63, -12015,49, -22176,66, -27055,58, -25538,30, 0,00, 0,00, 0,00
45, -30839,97, -31270,63, -24259,15, -30846,79, -12026,24, -22138,87, -27075,16, -25535,79, 0,00, 0,00, 0,00
46, -30832,58, -31269,78, -24237,20, -30845,16, -12030,63, -22130,30, -27085,24, -25555,17, 0,00, 0,00, 0,00
47, -30824,78, -31263,09, -24234,72, -30841,45, -12026,09, -22153,53, -27061,26, -25579,29, -0,10, 0,97, 0,26
48, -30829,11, -31258,29, -24256,51, -30836,44, -12017,17, -22177,22, -27038,01, -25554,53, 0,00, 0,00, 0,00
49, -30823,08, -31248,23, -24266,46, -30837,45, -12015,60, -22178,65, -27042,95, -25546,17, 0,00, 0,00, 0,00
50, -30820,48, -31243,76, -24279,47, -30841,81, -12023,11, -22170,56, -27060,70, -25567,24, 0,00, 0,00, 0,00
51, -30831,23, -31258,85, -24265,01, -30847,17, -12026,07, -22163,65, -27073,71, -25579,76, 0,00, 0,00, 0,00
52, -30833,85, -31266,67, -24244,40, -30848,89, -12022,69, -22169,29, -27064,70, -25554,99, 0,00, 0,00, 0,00
53, -30841,32, -31269,89, -24238,54, -30855,11, -12022,94, -22178,61, -27054,10, -25536,06, 0,00, 0,00, 0,00
54, -30836,04, -31261,55, -24260,40, -30854,35, -12027,61, -22193,09, -27060,16, -25546,79, 0,00, 0,00, 0,00
55, -30842,34, -31265,06, -24273,30, -30855,06, -12027,65, -22182,52, -27070,96, -25565,21, 0,00, 0,00, 0,00
56, -30838,41, -31267,43, -24263,13, -30855,15, -12025,37, -22178,45, -27067,02, -25579,58, 0,00, 0,00, 0,00
57, -30835,93, -31265,51, -24252,11, -30852,85, -12021,42, -22188,06, -27056,90, -25574,91, -0,11, 0,97, 0,26
58, -30838,90, -31261,89, -24257,97, -30852,65, -12018,29, -22199,73, -27054,37, -25564,74, 0,00, 0,00, 0,00
59, -30843,86, -31266,80, -24267,87, -30860,54, -12022,80, -22201,47, -27068,72, -25562,82, 0,00, 0,00, 0,00
60, -30844,65, -31272,64, -24248,45, -30863,60, -12022,76, -22165,40, -27078,94, -25549,90, 0,00, 0,00, 0,00
61, -30835,06, -31270,13, -24237,72, -30856,34, -12017,93, -22157,19, -27064,99, -25539,48, 0,00, 0,00, 0,00
62, -30837,67, -31266,22, -24225,15, -30857,86, -12013,77, -22167,03, -27044,74, -25548,02, 0,00, 0,00, 0,00
63, -30841,18, -31256,34, -24234,97, -30854,21, -12010,78, -22184,60, -27038,59, -25548,33, 0,00, 0,00, 0,00
64, -30838,79, -31258,29, -24253,07, -30851,26, -12008,70, -22183,44, -27049,74, -25531,70, 0,00, 0,00, 0,00
65, -30843,98, -31274,52, -24239,37, -30856,94, -12010,24, -22144,86, -27074,35, -25526,67, 0,00, 0,00, 0,00
66, -30845,29, -31279,79, -24217,71, -30862,68, -12013,59, -22129,19, -27074,42, -25532,62, 0,00, 0,00, 0,00
67, -30834,32, -31272,30, -24214,81, -30856,54, -12003,49, -22145,79, -27038,48, -25539,42, -0,11, 0,96, 0,27
68, -30833,56, -31268,23, -24227,75, -30855,67, -12004,92, -22164,91, -27037,94, -25554,57, 0,00, 0,00, 0,00
69, -30837,29, -31260,50, -24239,35, -30860,00, -12007,56, -22161,73, -27057,21, -25549,76, 0,00, 0,00, 0,00
70, -30830,92, -31259,05, -24235,12, -30863,56, -12013,93, -22136,81, -27079,43, -25547,46, 0,00, 0,00, 0,00
71, -30825,83, -31257,84, -24219,81, -30863,42, -12013,84, -22126,77, -27078,76, -25544,62, 0,00, 0,00, 0,00
72, -30816,80, -31250,96, -24201,15, -30862,10, -12008,30, -22131,18, -27061,64, -25534,65, 0,00, 0,00, 0,00
73, -30798,71, -31244,14, -24221,82, -30861,90, -12005,34, -22157,15, -27049,01, -25542,81, 0,00, 0,00, 0,00
74, -30808,08, -31236,88, -24250,81, -30862,79, -12003,31, -22172,57, -27043,64, -25548,74, 0,00, 0,00, 0,00
75, -30821,69, -31239,82, -24254,88, -30867,58, -12002,91, -22150,78, -27052,07, -25545,54, 0,00, 0,00, 0,00
76, -30830,81, -31249,48, -24237,70, -30880,99, -12010,91, -22140,21, -27062,71, -25563,55, 0,00, 0,00, 0,00
77, -30832,58, -31262,33, -24228,42, -30890,42, -12018,13, -22157,62, -27074,80, -25584,41, -0,10, 0,96, 0,26
78, -30832,93, -31266,67, -24236,02, -30888,88, -12020,83, -22176,28, -27080,97, -25556,87, 0,00, 0,00, 0,00
79, -30829,47, -31255,65, -24245,25, -30883,76, -12012,56, -22180,24, -27068,88, -25542,07, 0,00, 0,00, 0,00
80, -30835,95, -31254,20, -24233,80, -30885,06, -12006,35, -22150,51, -27053,63, -25530,36, 0,00, 0,00, 0,00
81, -30846,12, -31268,55, -24204,28, -30891,72, -12011,20, -22134,87, -27059,67, -25539,35, 0,00, 0,00, 0,00
82, -30843,46, -31264,14, -24215,79, -30891,63, -12016,79, -22169,29, -27068,23, -25545,16, 0,00, 0,00, 0,00
83, -30841,34, -31265,93, -24229,80, -30893,48, -12014,31, -22188,04, -27061,17, -25530,14, 0,00, 0,00, 0,00
84, -30837,05, -31273,67, -24235,08, -30895,27, -12014,71, -22188,60, -27070,09, -25527,08, 0,00, 0,00, 0,00
85, -30853,01, -31278,85, -24219,68, -30893,06, -12013,12, -22156,21, -27071,69, -25523,61, 0,00, 0,00, 0,00
86, -30852,49, -31277,22, -24210,76, -30888,81, -12015,51, -22151,16, -27074,35, -25531,41, 0,00, 0,00, 0,00
87, -30845,16, -31271,81, -24210,56, -30887,38, -12016,07, -22167,81, -27076,34, -25532,42, -0,09, 0,96, 0,26
88, -30842,54, -31273,31, -24215,16, -30891,99, -12018,58, -22179,17, -27076,77, -25535,93, 0,00, 0,00, 0,00
89, -30837,74, -31271,63, -24224,28, -30886,82, -12012,14, -22176,15, -27060,45, -25523,14, 0,00, 0,00, 0,00
90, -30841,88, -31269,69, -24229,83, -30882,96, -12009,68, -22154,27, -27044,87, -25515,83, 0,00, 0,00, 0,00
91, -30841,27, -31263,81, -24222,16, -30881,15, -12013,32, -22146,80, -27056,83, -25532,73, 0,00, 0,00, 0,00
92, -30838,81, -31262,65, -24225,98, -30883,65, -12019,61, -22167,72, -27073,59, -25555,96, 0,00, 0,00, 0,00
93, -30844,82, -31264,55, -24220,06, -30886,80, -12019,96, -22168,79, -27072,99, -25536,89, 0,00, 0,00, 0,00
94, -30841,07, -31258,18, -24222,29, -30881,30, -12021,73, -22164,77, -27077,91, -25526,52, 0,00, 0,00, 0,00
95, -30831,35, -31263,70, -24217,76, -30875,45, -12017,37, -22134,73, -27059,56, -25521,29, 0,00, 0,00, 0,00
96, -30829,20, -31262,54, -24195,56, -30876,95, -12021,37, -22121,34, -27072,05, -25546,48, 0,00, 0,00, 0,00
97, -30833,31, -31253,24, -24196,41, -30876,03, -12030,45, -22144,21, -27102,09, -25576,29, -0,10, 0,97, 0,26
98, -30829,09, -31253,84, -24207,88, -30869,19, -12025,28, -22159,21, -27093,78, -25559,84, 0,00, 0,00, 0,00
99, -30828,60, -31257,77, -24222,29, -30867,15, -12021,42, -22159,45, -27076,03, -25531,77, 0,00, 0,00, 0,00
100, -30824,17, -31248,07, -24231,06, -30862,73, -12016,43, -22139,13, -27075,94, -25531,55, 0,00, 0,00, 0,00
101, -30832,00, -31256,72, -24194,31, -30870,96, -12018,58, -22114,93, -27078,85, -25534,45, 0,00, 0,00, 0,00
102, -30826,77, -31252,68, -24206,98, -30864,40, -12018,73, -22147,87, -27072,34, -25536,58, 0,00, 0,00, 0,00
103, -30831,57, -31253,82, -24226,59, -30862,79, -12012,10, -22165,58, -27056,81, -25534,90, 0,00, 0,00, 0,00
104, -30834,10, -31261,17, -24234,10, -30870,39, -12016,50, -22161,66, -27067,29, -25546,72, 0,00, 0,00, 0,00
105, -30825,22, -31262,13, -24246,84, -30870,53, -12017,28, -22143,89, -27074,85, -25547,64, 0,00, 0,00, 0,00
106, -30825,47, -31261,62, -24233,31, -30865,88, -12009,91, -22125,25, -27063,25, -25531,55, -0,11, 0,96, 0,27
107, -30831,08, -31257,57, -24213,26, -30864,99, -12001,92, -22120,43, -27049,19, -25516,88, 0,00, 0,00, 0,00
108, -30821,29, -31259,09, -24203,12, -30868,03, -11996,70, -22118,32, -27036,76, -25505,15, 0,00, 0,00, 0,00
109, -30825,63, -31261,13, -24230,72, -30862,37, -11996,27, -22130,80, -27042,37, -25507,50, 0,00, 0,00, 0,00
110, -30838,23, -31263,85, -24220,97, -30858,39, -11990,41, -22092,46, -27042,95, -25497,57, 0,00, 0,00, 0,00
111, -30833,61, -31259,88, -24191,27, -30852,16, -11990,06, -22069,02, -27055,22, -25511,41, 0,00, 0,00, 0,00
112, -30827,32, -31256,81, -24195,56, -30848,94, -11996,65, -22091,17, -27067,83, -25541,76, 0,00, 0,00, 0,00
113, -30826,92, -31251,45, -24205,57, -30845,61, -11998,48, -22102,43, -27064,77, -25535,37, 0,00, 0,00, 0,00
114, -30823,97, -31256,66, -24218,20, -30844,45, -12003,71, -22102,61, -27075,61, -25542,10, 0,00, 0,00, 0,00
115, -30820,15, -31256,05, -24212,62, -30844,62, -12009,97, -22073,84, -27090,36, -25552,87, 0,00, 0,00, 0,00
116, -30818,05, -31253,93, -24184,41, -30851,89, -12018,31, -22056,12, -27101,53, -25559,93, -0,10, 0,96, 0,26
117, -30825,24, -31262,76, -24153,72, -30853,25, -12020,70, -22055,61, -27095,70, -25542,03, 0,00, 0,00, 0,00
118, -30831,53, -31258,71, -24151,57, -30846,95, -12016,01, -22068,01, -27065,55, -25526,29, 0,00, 0,00, 0,00
119, -30822,34, -31244,63, -24190,15, -30839,75, -12014,71, -22096,08, -27057,75, -25531,99, 0,00, 0,00, 0,00
120, -30830,43, -31250,06, -24169,37, -30843,15, -12011,29, -22061,15, -27056,16, -25529,20, 0,00, 0,00, 0,00
121, -30822,74, -31252,34, -24168,96, -30839,84, -12015,09, -22068,50, -27072,46, -25550,48, 0,00, 0,00, 0,00
122, -30823,93, -31258,36, -24174,33, -30842,32, -12018,51, -22089,83, -27078,89, -25552,09, 0,00, 0,00, 0,00
123, -30823,55, -31254,91, -24171,38, -30838,95, -12016,50, -22093,78, -27082,67, -25540,20, 0,00, 0,00, 0,00
124, -30825,83, -31252,54, -24201,82, -30837,18, -12016,74, -22108,06, -27075,83, -25545,25, 0,00, 0,00, 0,00
125, -30835,24, -31260,01, -24189,13, -30840,64, -12010,96, -22072,97, -27055,67, -25542,52, 0,00, 0,00, 0,00
126, -30841,14, -31267,99, -24134,32, -30846,61, -12009,39, -22037,01, -27053,81, -25524,02, -0,10, 0,96, 0,26
127, -30828,78, -31265,69, -24124,48, -30844,87, -12012,70, -22057,35, -27062,11, -25525,06, 0,00, 0,00, 0,00
128, -30836,04, -31262,91, -24140,69, -30841,76, -12008,18, -22076,41, -27046,68, -25513,11, 0,00, 0,00, 0,00
129, -30831,48, -31254,96, -24192,39, -30838,48, -12003,71, -22103,21, -27040,85, -25514,81, 0,00, 0,00, 0,00
130, -30835,17, -31264,08, -24197,71, -30849,36, -12001,52, -22078,90, -27054,01, -25528,40, 0,00, 0,00, 0,00
131, -30840,29, -31269,55, -24167,06, -30856,04, -12004,81, -22057,39, -27060,74, -25548,47, 0,00, 0,00, 0,00
132, -30838,05, -31265,71, -24149,96, -30850,77, -12000,34, -22061,17, -27046,08, -25528,35, 0,00, 0,00, 0,00
133, -30836,62, -31271,92, -24145,31, -30847,44, -11995,04, -22064,10, -27036,87, -25507,34, 0,00, 0,00, 0,00
134, -30830,70, -31262,54, -24156,63, -30842,81, -11993,41, -22065,80, -27044,85, -25505,24, 0,00, 0,00, 0,00
135, -30838,01, -31267,41, -24146,63, -30843,21, -11993,14, -22036,83, -27047,53, -25502,78, 0,00, 0,00, 0,00
136, -30841,05, -31277,18, -24119,12, -30845,56, -12000,36, -22021,81, -27055,20, -25520,42, -0,10, 0,96, 0,27
137, -30822,76, -31264,81, -24118,36, -30835,88, -12001,77, -22043,78, -27071,05, -25536,51, 0,00, 0,00, 0,00
138, -30817,22, -31247,65, -24150,84, -30830,47, -12007,31, -22075,99, -27109,00, -25551,62, 0,00, 0,00, 0,00
139, -30821,38, -31241,48, -24171,78, -30829,58, -12008,79, -22084,86, -27116,13, -25556,04, 0,00, 0,00, 0,00
140, -30819,19, -31239,58, -24156,92, -30833,13, -12001,32, -22050,11, -27067,45, -25558,84, 0,00, 0,00, 0,00
141, -30817,60, -31241,05, -24138,97, -30835,06, -11999,69, -22040,74, -27040,02, -25551,87, 0,00, 0,00, 0,00
142, -30815,50, -31241,59, -24134,76, -30832,26, -12003,15, -22059,63, -27057,41, -25550,30, 0,00, 0,00, 0,00
143, -30814,09, -31246,38, -24143,21, -30833,40, -12010,58, -22075,45, -27082,24, -25545,32, 0,00, 0,00, 0,00
144, -30818,67, -31252,50, -24151,26, -30839,39, -12013,97, -22077,64, -27092,30, -25544,31, 0,00, 0,00, 0,00
145, -30824,98, -31252,97, -24131,10, -30843,08, -12009,19, -22040,72, -27076,28, -25519,50, 0,00, 0,00, 0,00
146, -30820,86, -31240,07, -24111,29, -30840,13, -12008,68, -22032,27, -27069,95, -25519,28, -0,10, 0,97, 0,27
147, -30828,35, -31253,37, -24119,70, -30843,66, -12012,52, -22060,54, -27071,07, -25528,64, 0,00, 0,00, 0,00
148, -30826,21, -31262,45, -24138,81, -30846,93, -12011,76, -22083,84, -27060,27, -25537,83, 0,00, 0,00, 0,00
149, -30828,29, -31257,30, -24152,36, -30843,89, -12003,74, -22086,58, -27051,62, -25539,97, 0,00, 0,00, 0,00
150, -30844,31, -31257,55, -24144,94, -30844,15, -11996,90, -22055,29, -27037,94, -25525,29, 0,00, 0,00, 0,00
151, -30848,74, -31262,85, -24112,79, -30847,84, -11997,50, -22033,07, -27039,66, -25523,46, 0,00, 0,00, 0,00
152, -30840,24, -31260,84, -24106,22, -30844,31, -11994,21, -22048,52, -27047,60, -25516,01, 0,00, 0,00, 0,00
153, -30841,76, -31262,65, -24113,44, -30843,24, -11988,27, -22061,55, -27042,79, -25499,18, 0,00, 0,00, 0,00
154, -30846,90, -31271,92, -24125,22, -30844,56, -11987,33, -22064,10, -27036,91, -25503,54, 0,00, 0,00, 0,00
155, -30850,86, -31276,37, -24111,25, -30848,02, -11987,13, -22030,77, -27036,80, -25518,18, 0,00, 0,00, 0,00
156, -30847,22, -31273,40, -24083,47, -30850,61, -11988,40, -22014,52, -27045,30, -25525,78, -0,10, 0,97, 0,26
157, -30842,41, -31265,04, -24080,81, -30843,89, -11985,76, -22032,63, -27048,70, -25506,27, 0,00, 0,00, 0,00
158, -30836,67, -31263,21, -24088,16, -30833,85, -11972,78, -22045,61, -27031,04, -25492,03, 0,00, 0,00, 0,00
159, -30831,19, -31265,04, -24117,04, -30832,91, -11976,11, -22061,10, -27043,02, -25514,85, 0,00, 0,00, 0,00
160, -30829,09, -31265,66, -24112,68, -30832,51, -11975,62, -22028,02, -27056,74, -25515,41, 0,00, 0,00, 0,00
161, -30836,55, -31261,13, -24073,77, -30827,55, -11977,70, -21996,78, -27062,49, -25493,48, 0,00, 0,00, 0,00
162, -30833,85, -31251,87, -24065,63, -30826,54, -11986,01, -22013,58, -27071,20, -25519,97, 0,00, 0,00, 0,00
163, -30825,65, -31244,88, -24096,95, -30823,93, -11994,55, -22048,88, -27068,72, -25558,82, 0,00, 0,00, 0,00
164, -30827,61, -31248,86, -24114,16, -30829,89, -11999,02, -22056,81, -27066,44, -25566,51, 0,00, 0,00, 0,00
165, -30823,08, -31248,99, -24110,36, -30832,80, -12002,73, -22032,81, -27075,03, -25558,79, 0,00, 0,00, 0,00
166, -30822,38, -31254,98, -24087,96, -30832,76, -12005,19, -22017,14, -27082,54, -25548,85, -0,10, 0,97, 0,26
167, -30816,93, -31245,37, -24088,81, -30826,45, -12007,74, -22039,24, -27095,72, -25529,89, 0,00, 0,00, 0,00
168, -30814,58, -31236,92, -24097,39, -30827,55, -12008,32, -22053,88, -27093,53, -25509,24, 0,00, 0,00, 0,00
169, -30808,73, -31235,98, -24131,41, -30825,98, -12010,33, -22072,50, -27080,41, -25519,12, 0,00, 0,00, 0,00
170, -30807,52, -31239,22, -24124,33, -30834,01, -12006,60, -22043,60, -27061,39, -25532,20, 0,00, 0,00, 0,00
171, -30820,02, -31249,55, -24081,86, -30835,33, -12005,55, -22017,72, -27062,40, -25522,83, 0,00, 0,00, 0,00
172, -30825,16, -31258,18, -24080,23, -30836,11, -12010,02, -22041,03, -27067,00, -25518,16, 0,00, 0,00, 0,00
173, -30832,22, -31262,20, -24086,62, -30841,52, -12011,04, -22060,75, -27065,41, -25528,11, 0,00, 0,00, 0,00
174, -30829,16, -31258,09, -24105,66, -30838,70, -12005,88, -22073,49, -27063,80, -25518,34, 0,00, 0,00, 0,00
175, -30833,29, -31263,21, -24089,35, -30841,52, -11998,19, -22041,63, -27054,60, -25502,47, -0,10, 0,96, 0,27
176, -30842,30, -31269,66, -24049,47, -30843,08, -11995,40, -22019,02, -27042,66, -25505,48, 0,00, 0,00, 0,00
177, -30829,89, -31260,68, -24059,95, -30829,45, -11988,87, -22046,78, -27034,12, -25508,39, 0,00, 0,00, 0,00
178, -30837,79, -31271,52, -24062,50, -30831,08, -11984,63, -22053,82, -27033,07, -25506,11, 0,00, 0,00, 0,00
179, -30833,78, -31267,61, -24093,26, -30829,85, -11984,69, -22069,69, -27040,00, -25516,04, 0,00, 0,00, 0,00
180, -30834,37, -31255,81, -24080,40, -30829,02, -11971,06, -22033,75, -27030,77, -25519,16, 0,00, 0,00, 0,00
181, -30832,87, -31263,03, -24043,95, -30834,95, -11972,24, -22009,31, -27035,69, -25533,45, 0,00, 0,00, 0,00
182, -30831,93, -31263,45, -24045,76, -30826,27, -11970,01, -22031,24, -27048,49, -25527,41, 0,00, 0,00, 0,00
183, -30836,22, -31266,65, -24046,99, -30825,20, -11971,39, -22041,50, -27072,39, -25517,44, 0,00, 0,00, 0,00
184, -30835,26, -31263,70, -24056,20, -30823,57, -11974,16, -22046,91, -27073,86, -25539,79, 0,00, 0,00, 0,00
185, -30829,25, -31259,40, -24050,59, -30816,93, -11969,22, -22021,01, -27048,13, -25538,23, -0,10, 0,96, 0,26
186, -30816,17, -31248,72, -24037,91, -30807,83, -11966,59, -22009,72, -27043,20, -25528,08, 0,00, 0,00, 0,00
187, -30813,91, -31240,52, -24048,24, -30804,50, -11968,35, -22035,42, -27048,02, -25545,63, 0,00, 0,00, 0,00
188, -30811,88, -31242,15, -24064,09, -30803,25, -11974,54, -22053,37, -27041,59, -25547,02, 0,00, 0,00, 0,00
189, -30811,57, -31245,48, -24080,54, -30802,40, -11979,46, -22055,56, -27050,44, -25523,28, 0,00, 0,00, 0,00
190, -30818,18, -31247,56, -24064,24, -30810,25, -11984,27, -22023,31, -27063,18, -25520,88, 0,00, 0,00, 0,00
191, -30806,78, -31239,04, -24030,09, -30809,78, -11981,16, -22000,80, -27053,54, -25522,88, 0,00, 0,00, 0,00
192, -30810,83, -31245,17, -24010,00, -30814,36, -11988,09, -22010,59, -27054,82, -25527,41, 0,00, 0,00, 0,00
193, -30817,04, -31245,19, -24040,60, -30815,16, -11996,99, -22045,77, -27075,25, -25527,99, 0,00, 0,00, 0,00
194, -30819,17, -31251,29, -24054,75, -30818,83, -12000,76, -22052,54, -27076,88, -25525,96, 0,00, 0,00, 0,00
195, -30818,43, -31255,16, -24066,08, -30816,06, -11997,01, -22037,66, -27048,22, -25526,29, -0,09, 0,96, 0,26
196, -30825,76, -31258,27, -24038,29, -30821,54, -11999,42, -22018,21, -27051,96, -25546,14, 0,00, 0,00, 0,00
197, -30823,95, -31249,62, -24032,93, -30818,61, -12006,28, -22036,23, -27076,37, -25550,77, 0,00, 0,00, 0,00
198, -30827,46, -31254,80, -24042,79, -30820,17, -12000,96, -22046,89, -27065,08, -25536,15, 0,00, 0,00, 0,00
199, -30826,65, -31253,37, -24050,41, -30821,65, -11996,65, -22044,65, -27043,11, -25528,08, 0,00, 0,00, 0,00
200, -30824,24, -31250,60, -24055,66, -30821,20, -11990,39, -22021,50, -27041,05, -25514,38, 0,00, 0,00, 0,00
201, -30824,93, -31253,55, -24019,05, -30822,27, -11979,77, -21991,10, -27026,37, -25504,84, 0,00, 0,00, 0,00
202, -30822,99, -31257,60, -23996,43, -30822,72, -11975,01, -21999,12, -27028,55, -25511,27, 0,00, 0,00, 0,00
203, -30827,21, -31255,36, -24006,94, -30825,74, -11976,11, -22023,93, -27037,54, -25520,80, 0,00, 0,00, 0,00
204, -30830,23, -31248,45, -24023,65, -30826,52, -11977,29, -22036,03, -27034,26, -25529,60, 0,00, 0,00, 0,00
205, -30829,49, -31251,58, -24018,22, -30826,63, -11971,95, -22011,71, -27038,37, -25531,86, -0,10, 0,96, 0,26
206, -30825,07, -31251,56, -23985,30, -30824,31, -11970,25, -21989,22, -27058,80, -25515,21, 0,00, 0,00, 0,00
207, -30817,60, -31245,37, -23998,49, -30813,38, -11968,67, -22018,30, -27059,83, -25513,00, 0,00, 0,00, 0,00
208, -30816,77, -31245,44, -24028,01, -30811,90, -11970,30, -22047,18, -27046,82, -25532,66, 0,00, 0,00, 0,00
209, -30819,50, -31245,88, -24041,60, -30813,38, -11966,56, -22048,77, -27031,71, -25537,49, 0,00, 0,00, 0,00
210, -30823,14, -31251,36, -24020,75, -30816,60, -11963,75, -22013,09, -27018,92, -25507,83, 0,00, 0,00, 0,00
211, -30818,56, -31248,16, -23998,33, -30817,06, -11968,46, -21999,90, -27018,36, -25515,54, 0,00, 0,00, 0,00
212, -30812,28, -31238,95, -23999,54, -30816,15, -11979,42, -22025,05, -27032,78, -25550,17, 0,00, 0,00, 0,00
213, -30808,12, -31246,22, -24014,42, -30821,38, -11988,74, -22048,14, -27050,24, -25555,58, 0,00, 0,00, 0,00
214, -30809,69, -31241,52, -24032,37, -30815,79, -11988,72, -22057,17, -27064,23, -25523,99, 0,00, 0,00, 0,00
215, -30820,98, -31241,30, -24043,30, -30814,70, -11986,77, -22041,30, -27059,45, -25518,29, -0,10, 0,96, 0,26
216, -30814,16, -31242,15, -24034,14, -30815,32, -11990,08, -22034,37, -27060,76, -25531,95, 0,00, 0,00, 0,00
217, -30819,75, -31237,32, -24025,96, -30817,56, -11994,26, -22046,73, -27066,78, -25542,72, 0,00, 0,00, 0,00
218, -30819,14, -31239,13, -24020,68, -30814,14, -11988,45, -22049,86, -27059,69, -25530,34, 0,00, 0,00, 0,00
219, -30812,42, -31241,01, -24051,30, -30808,66, -11988,56, -22066,45, -27049,01, -25525,49, 0,00, 0,00, 0,00
220, -30812,50, -31239,94, -24054,16, -30809,76, -11982,01, -22040,05, -27034,88, -25509,02, 0,00, 0,00, 0,00
221, -30828,80, -31250,15, -24001,32, -30817,60, -11983,44, -21999,97, -27039,91, -25508,95, 0,00, 0,00, 0,00
222, -30829,18, -31251,76, -23979,31, -30814,65, -11987,60, -22009,63, -27051,73, -25524,71, 0,00, 0,00, 0,00
223, -30822,67, -31247,71, -23996,23, -30809,67, -11985,00, -22037,37, -27048,29, -25548,11, 0,00, 0,00, 0,00
224, -30813,51, -31237,21, -24029,78, -30803,81, -11985,25, -22058,89, -27061,64, -25550,77, 0,00, 0,00, 0,00
225, -30816,37, -31235,22, -24032,35, -30802,49, -11973,16, -22029,83, -27046,26, -25515,97, -0,11, 0,97, 0,26
226, -30808,03, -31234,19, -23991,22, -30804,50, -11963,41, -21996,26, -27021,49, -25501,04, 0,00, 0,00, 0,00
227, -30805,11, -31237,54, -23983,46, -30805,71, -11966,36, -22012,36, -27024,51, -25513,49, 0,00, 0,00, 0,00
228, -30818,49, -31235,64, -24007,81, -30803,27, -11967,21, -22041,28, -27034,48, -25523,57, 0,00, 0,00, 0,00
229, -30820,62, -31236,47, -24019,45, -30803,07, -11969,72, -22044,65, -27055,02, -25534,61, 0,00, 0,00, 0,00
230, -30822,59, -31237,12, -24004,92, -30807,10, -11970,72, -22012,42, -27057,50, -25533,63, 0,00, 0,00, 0,00
231, -30811,88, -31228,74, -23972,51, -30803,77, -11967,26, -21992,80, -27032,78, -25512,04, 0,00, 0,00, 0,00
232, -30808,23, -31229,30, -23974,01, -30804,46, -11971,17, -22021,01, -27019,93, -25530,77, 0,00, 0,00, 0,00
233, -30801,28, -31224,98, -23989,66, -30807,72, -11981,25, -22048,65, -27037,16, -25537,96, 0,00, 0,00, 0,00
234, -30805,42, -31220,78, -24005,19, -30806,76, -11983,24, -22056,86, -27045,03, -25511,74, 0,00, 0,00, 0,00
235, -30811,52, -31235,98, -24017,44, -30810,00, -11981,34, -22044,50, -27052,34, -25516,44, -0,11, 0,96, 0,26
236, -30808,50, -31234,82, -24008,81, -30814,36, -11990,12, -22036,05, -27059,45, -25534,79, 0,00, 0,00, 0,00
237, -30806,00, -31228,11, -24002,67, -30816,17, -11996,25, -22052,77, -27073,91, -25546,34, 0,00, 0,00, 0,00
238, -30797,98, -31226,79, -24016,35, -30810,18, -11991,20, -22071,56, -27055,94, -25532,71, 0,00, 0,00, 0,00
239, -30803,90, -31233,63, -24025,22, -30811,05, -11978,77, -22070,38, -27028,67, -25523,68, 0,00, 0,00, 0,00
240, -30811,97, -31241,08, -24027,99, -30820,10, -11991,33, -22052,57, -27057,93, -25534,32, 0,00, 0,00, 0,00
241, -30814,27, -31242,71, -24010,87, -30824,71, -11995,06, -22042,75, -27091,30, -25545,49, 0,00, 0,00, 0,00
242, -30821,02, -31241,55, -23987,40, -30827,68, -11988,78, -22050,15, -27061,44, -25557,41, 0,00, 0,00, 0,00
243, -30813,13, -31238,01, -23986,64, -30824,64, -11984,56, -22061,95, -27042,53, -25530,99, 0,00, 0,00, 0,00
244, -30817,78, -31244,70, -23979,42, -30824,13, -11979,39, -22050,71, -27029,96, -25512,19, 0,00, 0,00, 0,00
245, -30810,98, -31239,33, -23981,14, -30818,41, -11978,43, -22029,79, -27021,89, -25523,17, -0,10, 0,96, 0,26
246, -30799,12, -31234,13, -23963,77, -30814,54, -11979,80, -22017,07, -27038,01, -25529,87, 0,00, 0,00, 0,00
247, -30803,36, -31235,02, -23953,11, -30813,71, -11983,15, -22029,65, -27049,16, -25530,43, 0,00, 0,00, 0,00
248, -30798,24, -31226,30, -23969,27, -30811,14, -11982,34, -22049,68, -27043,26, -25525,54, 0,00, 0,00, 0,00
249, -30795,74, -31225,34, -23993,17, -30811,72, -11977,65, -22057,73, -27044,92, -25519,37, 0,00, 0,00, 0,00
250, -30789,95, -31226,57, -23987,76, -30809,08, -11967,50, -22026,88, -27033,34, -25516,46, 0,00, 0,00, 0,00
251, -30797,48, -31226,82, -23973,77, -30808,84, -11959,21, -22010,46, -27000,39, -25514,18, 0,00, 0,00, 0,00
252, -30810,38, -31234,77, -23948,35, -30815,95, -11963,93, -22011,97, -27000,26, -25520,51, 0,00, 0,00, 0,00
253, -30802,80, -31231,94, -23954,30, -30813,40, -11964,35, -22030,59, -27006,83, -25521,76, 0,00, 0,00, 0,00
254, -30798,71, -31224,92, -23982,50, -30811,16, -11963,91, -22046,49, -27011,41, -25523,50, -0,11, 0,96, 0,26
255, -30798,27, -31224,45, -23980,85, -30815,25, -11963,41, -22021,50, -27013,63, -25525,33, 0,00, 0,00, 0,00
0, -30802,54, -31227,11, -23944,69, -30824,26, -11970,39, -21999,57, -27016,57, -25528,87, 0,00, 0,00, 0,00
1, -30802,60, -31221,68, -23929,31, -30826,88, -11977,09, -22012,60, -27023,53, -25530,14, 0,00, 0,00, 0,00
2, -30797,06, -31225,30, -23948,87, -30822,94, -11982,30, -22040,07, -27041,97, -25528,26, 0,00, 0,00, 0,00
3, -30793,19, -31224,22, -23991,91, -30816,93, -11984,63, -22067,34, -27043,22, -25527,21, 0,00, 0,00, 0,00
4, -30801,02, -31230,04, -23988,65, -30825,38, -11988,56, -22045,35, -27045,03, -25537,16, 0,00, 0,00, 0,00
5, -30802,58, -31227,49, -23961,45, -30832,15, -11995,73, -22034,80, -27061,14, -25570,30, 0,00, 0,00, 0,00
6, -30801,53, -31228,67, -23940,44, -30835,55, -11995,87, -22046,46, -27055,49, -25554,77, 0,00, 0,00, 0,00
7, -30814,14, -31232,05, -23933,40, -30835,59, -11990,12, -22056,68, -27044,43, -25522,38, 0,00, 0,00, 0,00
8, -30813,20, -31233,79, -23955,73, -30836,87, -11992,07, -22077,26, -27043,69, -25541,36, -0,10, 0,97, 0,26
9, -30813,46, -31233,34, -23956,29, -30835,79, -11987,29, -22057,19, -27031,42, -25544,04, 0,00, 0,00, 0,00
10, -30808,21, -31230,21, -23933,04, -30832,31, -11986,19, -22040,29, -27046,46, -25538,65, 0,00, 0,00, 0,00
11, -30799,96, -31216,78, -23943,57, -30823,28, -11983,66, -22064,26, -27039,06, -25528,57, 0,00, 0,00, 0,00
12, -30800,23, -31215,24, -23963,30, -30819,99, -11979,66, -22085,82, -27019,10, -25522,43, 0,00, 0,00, 0,00
13, -30790,98, -31212,91, -23986,60, -30813,85, -11973,14, -22090,27, -27016,60, -25504,19, 0,00, 0,00, 0,00
14, -30791,45, -31212,73, -23975,49, -30816,71, -11975,35, -22055,07, -27035,35, -25503,61, 0,00, 0,00, 0,00
15, -30793,57, -31204,64, -23952,69, -30816,04, -11973,70, -22033,01, -27025,49, -25492,97, 0,00, 0,00, 0,00
16, -30795,88, -31206,74, -23953,22, -30817,06, -11977,00, -22048,47, -27029,07, -25504,95, 0,00, 0,00, 0,00
17, -30791,67, -31209,74, -23973,16, -30817,62, -11977,23, -22069,49, -27032,24, -25520,15, 0,00, 0,00, 0,00
18, -30782,73, -31205,45, -24007,25, -30816,91, -11974,19, -22080,48, -27020,35, -25530,99, -0,10, 0,97, 0,27
19, -30785,66, -31205,47, -24003,56, -30820,95, -11973,27, -22049,88, -27011,99, -25521,49, 0,00, 0,00, 0,00
20, -30802,36, -31214,14, -23958,92, -30831,86, -11980,31, -22018,10, -27018,43, -25511,07, 0,00, 0,00, 0,00
21, -30795,21, -31208,15, -23971,48, -30828,40, -11987,06, -22052,28, -27032,24, -25525,31, 0,00, 0,00, 0,00
22, -30794,82, -31208,71, -23978,77, -30833,43, -11987,46, -22070,40, -27029,40, -25537,25, 0,00, 0,00, 0,00
23, -30784,41, -31200,44, -23998,29, -30834,45, -11989,01, -22085,11, -27028,64, -25537,22, 0,00, 0,00, 0,00
24, -30788,12, -31200,42, -24005,30, -30839,51, -11990,46, -22071,25, -27040,29, -25529,07, 0,00, 0,00, 0,00
25, -30792,19, -31203,30, -23994,98, -30846,21, -11999,22, -22068,35, -27067,76, -25528,02, 0,00, 0,00, 0,00
26, -30785,39, -31201,67, -23998,04, -30845,72, -11995,96, -22090,74, -27070,58, -25523,68, 0,00, 0,00, 0,00
27, -30790,00, -31206,14, -24013,62, -30850,23, -11996,36, -22114,97, -27065,01, -25536,00, 0,00, 0,00, 0,00
28, -30797,22, -31200,35, -24048,17, -30853,74, -12001,75, -22138,31, -27076,84, -25555,29, -0,10, 0,97, 0,27
29, -30798,60, -31205,07, -24051,73, -30850,30, -11992,25, -22112,94, -27048,43, -25553,99, 0,00, 0,00, 0,00
30, -30804,79, -31214,39, -24015,83, -30857,23, -11993,34, -22086,99, -27031,73, -25574,75, 0,00, 0,00, 0,00
31, -30805,49, -31222,46, -24009,95, -30859,15, -12002,10, -22102,54, -27059,07, -25572,90, 0,00, 0,00, 0,00
32, -30795,25, -31224,87, -24019,29, -30857,95, -11996,85, -22119,93, -27049,57, -25550,99, 0,00, 0,00, 0,00
33, -30799,29, -31215,82, -24059,84, -30848,60, -11982,30, -22138,40, -27011,50, -25526,94, 0,00, 0,00, 0,00
34, -30802,69, -31216,71, -24055,91, -30846,72, -11969,11, -22099,93, -26999,39, -25492,07, 0,00, 0,00, 0,00
35, -30805,17, -31223,53, -24010,49, -30854,21, -11966,03, -22056,72, -26996,26, -25481,48, 0,00, 0,00, 0,00
36, -30798,98, -31220,33, -24001,53, -30854,37, -11969,13, -22064,77, -27007,19, -25501,19, 0,00, 0,00, 0,00
37, -30796,50, -31220,63, -24024,26, -30855,60, -11972,29, -22086,61, -27014,90, -25520,80, 0,00, 0,00, 0,00
38, -30801,06, -31224,13, -24057,54, -30861,95, -11977,47, -22102,05, -27038,97, -25530,18, -0,11, 0,97, 0,27
39, -30811,28, -31230,33, -24056,40, -30868,41, -11972,33, -22071,77, -27048,31, -25524,26, 0,00, 0,00, 0,00
40, -30811,72, -31233,66, -24010,85, -30872,07, -11968,60, -22034,39, -27039,04, -25519,52, 0,00, 0,00, 0,00
41, -30812,57, -31230,17, -23994,60, -30875,38, -11972,85, -22044,05, -27028,87, -25504,93, 0,00, 0,00, 0,00
42, -30804,57, -31218,72, -24013,35, -30877,12, -11974,81, -22070,02, -27020,71, -25505,96, 0,00, 0,00, 0,00
43, -30801,69, -31219,89, -24041,69, -30880,95, -11980,40, -22087,93, -27021,25, -25515,28, 0,00, 0,00, 0,00
44, -30796,25, -31220,67, -24040,66, -30882,38, -11979,01, -22067,79, -27019,03, -25525,80, 0,00, 0,00, 0,00
45, -30804,75, -31219,44, -24018,56, -30881,30, -11978,46, -22055,43, -27026,59, -25533,69, 0,00, 0,00, 0,00
46, -30807,23, -31216,09, -24028,21, -30870,71, -11974,54, -22080,21, -27031,55, -25523,97, 0,00, 0,00, 0,00
47, -30811,23, -31224,25, -24033,09, -30874,04, -11978,39, -22091,99, -27048,72, -25506,74, 0,00, 0,00, 0,00
48, -30819,57, -31227,98, -24058,10, -30882,62, -11991,33, -22105,79, -27070,69, -25507,34, -0,10, 0,96, 0,27
49, -30823,48, -31232,83, -24055,21, -30880,74, -11989,45, -22080,95, -27056,81, -25507,65, 0,00, 0,00, 0,00
50, -30822,05, -31230,82, -24043,68, -30878,53, -11991,80, -22073,69, -27050,66, -25522,00, 0,00, 0,00, 0,00
51, -30821,76, -31232,31, -24033,62, -30872,50, -11992,25, -22084,39, -27057,10, -25525,85, 0,00, 0,00, 0,00
52, -30817,33, -31236,65, -24047,15, -30864,99, -11986,26, -22100,04, -27044,29, -25518,05, 0,00, 0,00, 0,00
53, -30821,65, -31238,66, -24052,91, -30869,28, -11987,53, -22097,63, -27033,09, -25525,63, 0,00, 0,00, 0,00
54, -30812,35, -31226,32, -24050,30, -30868,41, -11987,37, -22070,38, -27033,23, -25522,58, 0,00, 0,00, 0,00
55, -30826,21, -31227,80, -24027,59, -30865,54, -11985,97, -22047,09, -27037,85, -25506,38, 0,00, 0,00, 0,00
56, -30830,99, -31225,81, -24007,94, -30864,47, -11984,42, -22047,63, -27040,69, -25510,25, 0,00, 0,00, 0,00
57, -30820,98, -31225,86, -24020,19, -30861,77, -11986,26, -22062,49, -27036,36, -25526,16, 0,00, 0,00, 0,00
58, -30819,84, -31229,03, -24054,25, -30858,01, -11985,47, -22077,00, -27036,65, -25537,36, -0,10, 0,96, 0,26
59, -30830,88, -31239,89, -24034,49, -30862,71, -11984,74, -22031,31, -27043,06, -25524,84, 0,00, 0,00, 0,00
60, -30827,44, -31237,70, -24019,59, -30860,49, -11987,78, -22013,18, -27059,29, -25517,33, 0,00, 0,00, 0,00
61, -30823,97, -31233,79, -24009,95, -30854,55, -11985,32, -22017,85, -27066,42, -25505,89, 0,00, 0,00, 0,00
62, -30822,63, -31234,60, -24032,28, -30850,26, -11984,94, -22039,31, -27055,82, -25495,34, 0,00, 0,00, 0,00
63, -30821,56, -31237,41, -24047,53, -30852,38, -11983,66, -22039,96, -27050,73, -25499,90, 0,00, 0,00, 0,00
64, -30815,07, -31233,46, -24045,07, -30852,18, -11980,09, -22013,54, -27050,95, -25500,59, 0,00, 0,00, 0,00
65, -30812,46, -31227,00, -24029,67, -30852,25, -11981,32, -21996,13, -27056,61, -25503,76, 0,00, 0,00, 0,00
66, -30827,23, -31223,80, -24016,93, -30850,93, -11985,50, -22006,54, -27060,90, -25528,66, 0,00, 0,00, 0,00
67, -30823,97, -31219,64, -24045,04, -30847,46, -11986,37, -22035,78, -27059,74, -25543,82, -0,10, 0,96, 0,26
68, -30830,23, -31230,39, -24051,26, -30854,28, -11986,68, -22032,18, -27067,40, -25528,87, 0,00, 0,00, 0,00
69, -30828,75, -31233,34, -24033,73, -30850,59, -11981,07, -21994,88, -27051,69, -25513,00, 0,00, 0,00, 0,00
70, -30816,44, -31231,96, -24025,84, -30842,99, -11980,09, -21990,23, -27030,37, -25507,68, 0,00, 0,00, 0,00
71, -30809,17, -31229,83, -24046,77, -30834,16, -11980,38, -22017,79, -27032,42, -25497,51, 0,00, 0,00, 0,00
72, -30818,63, -31232,54, -24061,36, -30841,32, -11984,80, -22030,17, -27054,91, -25502,31, 0,00, 0,00, 0,00
73, -30816,15, -31229,43, -24087,63, -30837,61, -11984,85, -22038,53, -27052,76, -25525,45, 0,00, 0,00, 0,00
74, -30823,52, -31233,52, -24080,32, -30842,88, -11978,46, -22002,32, -27025,74, -25530,59, 0,00, 0,00, 0,00
75, -30825,67, -31243,47, -24041,11, -30847,28, -11986,35, -21969,35, -27047,89, -25521,80, 0,00, 0,00, 0,00
76, -30814,92, -31231,40, -24033,09, -30835,91, -11982,99, -21978,04, -27043,98, -25510,92, 0,00, 0,00, 0,00
77, -30818,88, -31230,91, -24024,30, -30836,78, -11981,25, -21980,01, -27029,70, -25507,99, -0,11, 0,96, 0,26
78, -30811,14, -31231,29, -24046,77, -30835,15, -11985,94, -21993,18, -27047,55, -25508,95, 0,00, 0,00, 0,00
79, -30821,85, -31227,22, -24048,22, -30829,85, -11983,11, -21969,06, -27060,00, -25501,48, 0,00, 0,00, 0,00
80, -30822,18, -31229,50, -24036,04, -30828,73, -11988,25, -21955,02, -27069,19, -25502,69, 0,00, 0,00, 0,00
81, -30817,20, -31225,63, -24026,43, -30823,95, -11986,17, -21963,09, -27053,75, -25508,37, 0,00, 0,00, 0,00
82, -30819,50, -31227,64, -24028,35, -30824,20, -11990,03, -21973,02, -27049,46, -25504,35, 0,00, 0,00, 0,00
83, -30818,25, -31228,36, -24055,88, -30823,26, -11991,89, -21983,97, -27047,00, -25518,31, 0,00, 0,00, 0,00
84, -30817,94, -31235,98, -24043,77, -30825,83, -11990,66, -21952,50, -27048,25, -25533,98, 0,00, 0,00, 0,00
85, -30827,48, -31242,15, -24012,43, -30827,46, -11991,58, -21931,06, -27059,71, -25531,62, 0,00, 0,00, 0,00
86, -30824,46, -31239,15, -23996,41, -30822,85, -11990,55, -21942,10, -27060,94, -25522,88, 0,00, 0,00, 0,00
87, -30816,37, -31227,49, -24013,24, -30814,83, -11983,24, -21963,87, -27039,71, -25512,55, -0,10, 0,96, 0,26
88, -30807,05, -31224,18, -24037,67, -30811,72, -11978,43, -21973,60, -27039,93, -25499,03, 0,00, 0,00, 0,00
89, -30820,78, -31228,13, -24017,91, -30815,19, -11978,05, -21935,71, -27048,78, -25487,45, 0,00, 0,00, 0,00
90, -30819,17, -31223,75, -23987,49, -30811,19, -11979,77, -21920,18, -27062,22, -25494,87, 0,00, 0,00, 0,00
91, -30814,02, -31222,99, -23995,29, -30805,33, -11978,72, -21947,47, -27067,67, -25503,59, 0,00, 0,00, 0,00
92, -30823,90, -31231,87, -24008,01, -30811,59, -11981,52, -21970,29, -27067,98, -25520,39, 0,00, 0,00, 0,00
93, -30825,78, -31227,69, -24020,77, -30816,15, -11985,50, -21977,40, -27068,56, -25529,33, 0,00, 0,00, 0,00
94, -30817,29, -31224,87, -24015,41, -30812,46, -11982,59, -21944,74, -27055,04, -25523,17, 0,00, 0,00, 0,00
95, -30816,97, -31231,24, -23987,56, -30812,50, -11977,56, -21920,85, -27042,23, -25521,60, 0,00, 0,00, 0,00
96, -30827,55, -31241,17, -23954,56, -30818,18, -11979,82, -21921,29, -27039,87, -25513,49, 0,00, 0,00, 0,00
97, -30821,31, -31231,80, -23974,73, -30812,04, -11980,20, -21948,90, -27045,52, -25500,26, -0,10, 0,96, 0,26
98, -30811,43, -31226,59, -24005,37, -30805,33, -11968,55, -21959,74, -26992,12, -25500,68, 0,00, 0,00, 0,00
99, -30825,65, -31235,49, -23991,00, -30812,50, -11969,34, -21922,79, -26981,91, -25510,25, 0,00, 0,00, 0,00
100, -30818,63, -31234,04, -23969,12, -30812,82, -11974,14, -21906,05, -27001,64, -25507,56, 0,00, 0,00, 0,00
101, -30816,06, -31237,95, -23939,16, -30815,39, -11975,21, -21903,55, -27013,92, -25505,15, 0,00, 0,00, 0,00
102, -30819,03, -31229,79, -23958,88, -30810,36, -11981,52, -21931,96, -27024,17, -25509,96, 0,00, 0,00, 0,00
103, -30812,53, -31227,58, -23990,06, -30808,75, -11979,75, -21948,65, -27030,66, -25514,49, 0,00, 0,00, 0,00
104, -30805,08, -31221,41, -23988,70, -30802,83, -11977,74, -21921,43, -27036,98, -25497,93, 0,00, 0,00, 0,00
105, -30810,61, -31225,34, -23977,32, -30805,91, -11979,71, -21906,07, -27048,92, -25490,80, 0,00, 0,00, 0,00
106, -30805,33, -31233,63, -23964,44, -30807,39, -11978,95, -21914,23, -27042,19, -25503,63, 0,00, 0,00, 0,00
107, -30806,56, -31232,90, -23975,17, -30807,99, -11978,14, -21932,89, -27038,05, -25507,92, -0,10, 0,96, 0,26
108, -30817,87, -31234,26, -23994,06, -30809,73, -11978,21, -21943,40, -27040,11, -25511,21, 0,00, 0,00, 0,00
109, -30822,43, -31236,25, -23984,11, -30815,32, -11975,68, -21916,46, -27048,27, -25503,76, 0,00, 0,00, 0,00
110, -30822,43, -31237,23, -23963,95, -30819,63, -11977,70, -21905,25, -27052,29, -25499,74, 0,00, 0,00, 0,00
111, -30817,51, -31238,37, -23936,84, -30821,80, -11980,22, -21912,35, -27055,96, -25511,25, 0,00, 0,00, 0,00
112, -30805,24, -31227,46, -23954,97, -30815,03, -11979,28, -21942,46, -27064,07, -25524,17, 0,00, 0,00, 0,00
113, -30808,28, -31219,75, -23982,35, -30813,04, -11975,64, -21958,96, -27071,94, -25517,53, 0,00, 0,00, 0,00
114, -30813,76, -31223,75, -23963,33, -30814,22, -11968,02, -21918,46, -27050,46, -25499,79, 0,00, 0,00, 0,00
115, -30813,35, -31222,08, -23937,69, -30813,04, -11968,93, -21897,80, -27031,75, -25494,98, 0,00, 0,00, 0,00
116, -30818,83, -31224,31, -23929,24, -30818,41, -11977,50, -21913,07, -27039,91, -25510,38, 0,00, 0,00, 0,00
117, -30815,16, -31216,29, -23941,02, -30815,61, -11978,39, -21934,48, -27032,51, -25526,96, -0,10, 0,96, 0,26
118, -30808,66, -31220,63, -23952,80, -30814,11, -11978,86, -21935,22, -27043,29, -25523,99, 0,00, 0,00, 0,00
119, -30813,69, -31235,56, -23952,60, -30814,94, -11982,26, -21914,03, -27051,78, -25532,73, 0,00, 0,00, 0,00
120, -30822,45, -31235,87, -23917,57, -30813,53, -11976,06, -21887,56, -27040,33, -25510,00, 0,00, 0,00, 0,00
121, -30816,15, -31227,17, -23912,28, -30810,36, -11977,94, -21903,39, -27043,84, -25500,84, 0,00, 0,00, 0,00
122, -30811,52, -31226,32, -23918,76, -30813,53, -11975,77, -21914,86, -27042,62, -25512,73, 0,00, 0,00, 0,00
123, -30811,97, -31228,74, -23933,13, -30815,21, -11977,88, -21922,52, -27059,38, -25519,63, 0,00, 0,00, 0,00
124, -30819,63, -31232,63, -23916,23, -30816,62, -11977,54, -21887,90, -27072,57, -25501,02, 0,00, 0,00, 0,00
125, -30816,33, -31230,01, -23910,38, -30812,15, -11978,48, -21884,97, -27069,44, -25500,17, 0,00, 0,00, 0,00
126, -30821,15, -31229,88, -23884,47, -30812,88, -11974,39, -21887,92, -27042,62, -25500,34, 0,00, 0,00, 0,00
127, -30819,84, -31224,74, -23901,64, -30805,91, -11973,87, -21913,16, -27032,51, -25493,08, -0,10, 0,97, 0,26
128, -30823,59, -31229,43, -23911,20, -30807,16, -11973,85, -21914,70, -27024,42, -25495,31, 0,00, 0,00, 0,00
129, -30823,30, -31235,36, -23899,29, -30813,73, -11976,71, -21885,67, -27026,70, -25508,86, 0,00, 0,00, 0,00
130, -30816,82, -31227,76, -23868,47, -30819,72, -11982,52, -21871,56, -27042,66, -25524,55, 0,00, 0,00, 0,00
131, -30819,59, -31227,04, -23872,04, -30818,34, -11988,29, -21903,46, -27066,24, -25529,20, 0,00, 0,00, 0,00
132, -30816,84, -31230,73, -23892,20, -30810,89, -11985,16, -21928,16, -27072,61, -25508,90, 0,00, 0,00, 0,00
133, -30817,87, -31224,96, -23915,83, -30807,90, -11980,87, -21936,72, -27066,13, -25502,63, 0,00, 0,00, 0,00
134, -30822,18, -31226,41, -23906,98, -30809,24, -11977,50, -21904,62, -27048,16, -25500,57, 0,00, 0,00, 0,00
135, -30816,91, -31224,89, -23867,73, -30807,52, -11974,41, -21876,75, -27029,38, -25492,41, 0,00, 0,00, 0,00
136, -30812,93, -31223,29, -23859,97, -30803,23, -11975,86, -21893,87, -27029,65, -25504,59, -0,10, 0,97, 0,25
137, -30809,51, -31214,17, -23891,73, -30800,05, -11974,92, -21924,89, -27032,13, -25524,95, 0,00, 0,00, 0,00
138, -30805,02, -31211,48, -23918,69, -30802,47, -11977,36, -21935,69, -27040,18, -25524,62, 0,00, 0,00, 0,00
139, -30805,98, -31218,93, -23901,95, -30804,17, -11973,00, -21893,87, -27029,83, -25497,21, 0,00, 0,00, 0,00
140, -30802,42, -31221,94, -23850,81, -30805,87, -11975,53, -21856,54, -27034,88, -25496,99, 0,00, 0,00, 0,00
141, -30803,54, -31224,80, -23841,67, -30803,83, -11978,66, -21872,66, -27042,73, -25514,67, 0,00, 0,00, 0,00
142, -30803,01, -31221,38, -23847,52, -30800,35, -11977,50, -21891,68, -27047,15, -25516,77, 0,00, 0,00, 0,00
143, -30807,90, -31209,11, -23868,60, -30800,46, -11978,57, -21907,10, -27044,49, -25517,62, 0,00, 0,00, 0,00
144, -30807,88, -31209,63, -23859,97, -30799,83, -11973,18, -21876,28, -27042,79, -25496,32, 0,00, 0,00, 0,00
145, -30808,28, -31222,35, -23837,75, -30804,41, -11977,83, -21859,54, -27048,96, -25481,26, 0,00, 0,00, 0,00
146, -30805,49, -31221,79, -23827,81, -30802,51, -11979,44, -21873,71, -27060,72, -25481,52, -0,10, 0,96, 0,25
147, -30805,20, -31223,02, -23830,24, -30798,83, -11977,50, -21888,55, -27056,99, -25490,62, 0,00, 0,00, 0,00
148, -30804,88, -31215,15, -23847,95, -30797,39, -11975,71, -21897,65, -27039,89, -25490,31, 0,00, 0,00, 0,00
149, -30804,93, -31211,06, -23840,48, -30797,44, -11972,02, -21871,72, -27034,05, -25492,32, 0,00, 0,00, 0,00
150, -30806,63, -31219,46, -23801,97, -30801,46, -11972,33, -21844,38, -27036,80, -25495,45, 0,00, 0,00, 0,00
151, -30790,73, -31221,21, -23797,59, -30797,84, -11974,14, -21866,02, -27037,27, -25505,73, 0,00, 0,00, 0,00
152, -30793,64, -31216,27, -23827,83, -30791,43, -11971,04, -21899,19, -27039,51, -25499,94, 0,00, 0,00, 0,00
153, -30816,51, -31228,54, -23831,94, -30801,75, -11973,38, -21898,81, -27047,64, -25498,67, 0,00, 0,00, 0,00
154, -30823,84, -31229,57, -23826,62, -30805,49, -11982,21, -21876,86, -27069,30, -25518,87, 0,00, 0,00, 0,00
155, -30812,64, -31217,00, -23821,84, -30793,82, -11978,59, -21870,94, -27059,33, -25527,26, 0,00, 0,00, 0,00
156, -30806,74, -31211,51, -23812,30, -30787,09, -11970,07, -21878,98, -27032,36, -25512,35, -0,10, 0,97, 0,25
157, -30795,54, -31217,76, -23832,14, -30784,03, -11966,65, -21903,95, -27022,81, -25512,64, 0,00, 0,00, 0,00
158, -30799,81, -31221,74, -23834,38, -30788,07, -11969,07, -21901,96, -27022,86, -25507,61, 0,00, 0,00, 0,00
159, -30798,02, -31215,37, -23825,86, -30784,61, -11964,82, -21872,30, -27024,06, -25488,50, 0,00, 0,00, 0,00
160, -30801,91, -31215,64, -23790,55, -30786,04, -11964,29, -21845,83, -27030,86, -25478,19, 0,00, 0,00, 0,00
161, -30797,86, -31207,88, -23793,21, -30780,12, -11968,44, -21867,87, -27040,67, -25484,03, 0,00, 0,00, 0,00
162, -30786,69, -31210,21, -23825,75, -30775,49, -11968,17, -21901,33, -27033,85, -25502,29, 0,00, 0,00, 0,00
163, -30798,04, -31217,61, -23830,07, -30776,32, -11960,75, -21893,91, -27023,06, -25496,46, 0,00, 0,00, 0,00
164, -30799,67, -31217,70, -23819,87, -30776,96, -11962,47, -21860,16, -27028,15, -25487,96, 0,00, 0,00, 0,00
165, -30800,52, -31215,64, -23801,70, -30779,20, -11965,65, -21844,05, -27040,49, -25513,67, 0,00, 0,00, 0,00
166, -30802,24, -31215,04, -23791,62, -30782,40, -11970,39, -21856,47, -27052,52, -25522,67, -0,10, 0,96, 0,26
167, -30800,19, -31211,33, -23791,02, -30782,22, -11968,78, -21867,63, -27048,76, -25499,36, 0,00, 0,00, 0,00
168, -30790,67, -31200,15, -23813,53, -30775,27, -11962,81, -21876,81, -27036,20, -25475,67, 0,00, 0,00, 0,00
169, -30794,82, -31214,25, -23804,21, -30781,68, -11962,63, -21848,11, -27019,91, -25484,43, 0,00, 0,00, 0,00
170, -30801,02, -31225,07, -23774,07, -30786,64, -11968,11, -21830,75, -27038,88, -25505,57, 0,00, 0,00, 0,00
171, -30798,51, -31210,90, -23785,47, -30774,53, -11969,67, -21861,62, -27059,22, -25504,70, 0,00, 0,00, 0,00
172, -30780,83, -31205,31, -23801,52, -30770,77, -11961,33, -21876,97, -27044,74, -25499,90, 0,00, 0,00, 0,00
173, -30783,85, -31205,18, -23818,98, -30775,69, -11963,91, -21883,47, -27047,13, -25507,70, 0,00, 0,00, 0,00
174, -30792,28, -31212,87, -23810,69, -30777,64, -11961,58, -21853,61, -27041,56, -25488,95, 0,00, 0,00, 0,00
175, -30795,41, -31211,77, -23784,47, -30780,61, -11956,93, -21835,40, -27028,44, -25494,42, 0,00, 0,00, 0,00
176, -30795,14, -31209,16, -23767,77, -30782,96, -11961,29, -21846,91, -27029,47, -25512,53, -0,10, 0,97, 0,27
177, -30787,16, -31203,44, -23780,65, -30777,68, -11959,12, -21866,46, -27015,64, -25507,18, 0,00, 0,00, 0,00
178, -30789,33, -31203,88, -23804,25, -30777,46, -11961,58, -21876,59, -27005,24, -25495,76, 0,00, 0,00, 0,00
179, -30786,89, -31196,62, -23803,06, -30778,20, -11963,84, -21848,09, -27018,68, -25487,60, 0,00, 0,00, 0,00
180, -30785,32, -31192,51, -23786,90, -30776,00, -11966,03, -21829,85, -27030,72, -25494,64, 0,00, 0,00, 0,00
181, -30786,11, -31197,65, -23784,38, -30774,53, -11965,96, -21843,49, -27030,68, -25512,08, 0,00, 0,00, 0,00
182, -30790,46, -31199,93, -23792,04, -30776,99, -11963,88, -21859,94, -27017,40, -25512,77, 0,00, 0,00, 0,00
183, -30778,62, -31203,73, -23820,05, -30778,35, -11962,43, -21875,36, -27010,45, -25507,38, 0,00, 0,00, 0,00
184, -30785,82, -31213,70, -23819,40, -30787,67, -11962,99, -21852,96, -27013,60, -25525,11, 0,00, 0,00, 0,00
185, -30794,04, -31208,78, -23785,76, -30786,08, -11959,99, -21828,31, -27010,09, -25512,62, 0,00, 0,00, 0,00
186, -30794,24, -31203,97, -23786,39, -30785,50, -11964,17, -21847,47, -27023,17, -25486,84, -0,10, 0,97, 0,25
187, -30789,33, -31202,99, -23797,16, -30784,50, -11964,53, -21865,24, -27034,41, -25475,56, 0,00, 0,00, 0,00
188, -30787,22, -31204,78, -23810,42, -30784,77, -11966,41, -21871,34, -27038,99, -25483,94, 0,00, 0,00, 0,00
189, -30792,37, -31210,83, -23807,58, -30786,40, -11962,56, -21846,44, -27016,49, -25486,96, 0,00, 0,00, 0,00
190, -30799,88, -31216,76, -23784,36, -30792,50, -11968,89, -21833,65, -27025,27, -25511,86, 0,00, 0,00, 0,00
191, -30797,73, -31210,23, -23773,65, -30790,76, -11976,13, -21853,12, -27047,93, -25538,07, 0,00, 0,00, 0,00
192, -30786,67, -31199,59, -23795,51, -30779,85, -11967,88, -21877,10, -27029,67, -25515,30, 0,00, 0,00, 0,00
193, -30788,72, -31192,17, -23820,37, -30779,51, -11962,09, -21886,36, -27010,70, -25490,40, 0,00, 0,00, 0,00
194, -30791,07, -31199,82, -23799,62, -30784,99, -11960,22, -21847,35, -27007,70, -25473,34, 0,00, 0,00, 0,00
195, -30786,82, -31208,31, -23782,30, -30783,94, -11968,87, -21834,77, -27038,26, -25496,88, 0,00, 0,00, 0,00
196, -30796,28, -31217,67, -23775,08, -30779,31, -11971,68, -21850,53, -27051,55, -25506,31, -0,10, 0,97, 0,26
197, -30796,10, -31217,54, -23771,62, -30773,19, -11963,86, -21856,23, -27032,85, -25485,46, 0,00, 0,00, 0,00
198, -30792,48, -31215,53, -23787,42, -30772,18, -11964,24, -21864,59, -27026,43, -25482,28, 0,00, 0,00, 0,00
199, -30792,46, -31209,43, -23798,44, -30773,61, -11962,59, -21847,94, -27024,31, -25491,76, 0,00, 0,00, 0,00
200, -30795,65, -31210,50, -23768,82, -30775,47, -11960,73, -21826,12, -27019,17, -25494,58, 0,00, 0,00, 0,00
201, -30797,02, -31211,08, -23763,99, -30777,72, -11964,69, -21845,07, -27011,63, -25507,01, 0,00, 0,00, 0,00
202, -30799,16, -31213,12, -23761,49, -30780,45, -11962,79, -21852,72, -27003,28, -25513,35, 0,00, 0,00, 0,00
203, -30794,24, -31203,46, -23784,40, -30775,63, -11961,78, -21861,77, -27005,42, -25499,41, 0,00, 0,00, 0,00
204, -30796,19, -31205,47, -23760,66, -30781,68, -11961,80, -21818,54, -26999,95, -25478,42, 0,00, 0,00, 0,00
205, -30793,80, -31192,24, -23737,19, -30782,33, -11968,58, -21805,40, -27009,91, -25492,57, 0,00, 0,00, 0,00
206, -30789,55, -31205,00, -23752,37, -30780,50, -11970,01, -21835,91, -27012,28, -25506,65, -0,11, 0,97, 0,26
207, -30788,95, -31223,04, -23750,14, -30783,58, -11963,26, -21842,50, -26992,97, -25497,35, 0,00, 0,00, 0,00
208, -30799,00, -31222,86, -23759,79, -30785,77, -11964,40, -21843,46, -26998,52, -25479,27, 0,00, 0,00, 0,00
209, -30801,46, -31219,66, -23748,13, -30788,86, -11967,28, -21812,26, -27016,93, -25470,39, 0,00, 0,00, 0,00
210, -30803,54, -31219,15, -23732,34, -30788,37, -11969,76, -21800,93, -27022,95, -25479,22, 0,00, 0,00, 0,00
211, -30801,06, -31213,14, -23731,54, -30786,20, -11969,74, -21821,27, -27023,37, -25485,39, 0,00, 0,00, 0,00
212, -30793,93, -31201,67, -23744,17, -30783,31, -11964,08, -21838,50, -27020,42, -25477,50, 0,00, 0,00, 0,00
213, -30787,76, -31200,29, -23767,99, -30784,36, -11961,83, -21854,66, -27009,53, -25483,16, 0,00, 0,00, 0,00
214, -30788,54, -31206,41, -23773,65, -30785,93, -11963,12, -21838,68, -27012,37, -25487,49, 0,00, 0,00, 0,00
215, -30783,49, -31201,07, -23767,99, -30786,93, -11971,44, -21835,98, -27024,73, -25511,32, -0,11, 0,96, 0,26
216, -30784,41, -31194,70, -23755,81, -30787,31, -11969,38, -21844,36, -27024,20, -25512,48, 0,00, 0,00, 0,00
217, -30778,40, -31196,57, -23749,98, -30789,79, -11971,91, -21853,46, -27022,28, -25495,54, 0,00, 0,00, 0,00
218, -30775,60, -31196,42, -23757,98, -30777,55, -11965,94, -21857,70, -27025,87, -25482,42, 0,00, 0,00, 0,00
219, -30785,97, -31208,87, -23774,72, -30769,37, -11960,04, -21846,08, -27025,94, -25459,37, 0,00, 0,00, 0,00
220, -30789,75, -31211,04, -23763,03, -30771,80, -11956,66, -21834,10, -27011,14, -25463,31, 0,00, 0,00, 0,00
221, -30797,08, -31208,89, -23748,44, -30779,67, -11960,51, -21842,48, -26999,48, -25472,65, 0,00, 0,00, 0,00
222, -30792,32, -31211,95, -23750,83, -30780,50, -11961,02, -21855,67, -26999,97, -25481,39, 0,00, 0,00, 0,00
223, -30783,92, -31211,26, -23771,73, -30777,77, -11957,89, -21867,87, -26996,95, -25482,42, 0,00, 0,00, 0,00
224, -30781,08, -31204,20, -23761,83, -30779,74, -11953,51, -21836,69, -26991,41, -25478,17, 0,00, 0,00, 0,00
225, -30779,31, -31200,06, -23754,56, -30776,47, -11956,53, -21828,65, -27007,25, -25492,50, -0,10, 0,96, 0,27
226, -30778,73, -31202,83, -23748,97, -30776,25, -11958,00, -21843,26, -27016,98, -25499,94, 0,00, 0,00, 0,00
227, -30782,42, -31205,18, -23754,00, -30781,30, -11963,35, -21860,79, -27027,55, -25500,46, 0,00, 0,00, 0,00
228, -30774,71, -31197,76, -23764,64, -30773,59, -11959,14, -21866,35, -27026,25, -25486,22, 0,00, 0,00, 0,00
229, -30767,24, -31190,65, -23761,38, -30770,04, -11949,60, -21838,23, -27016,20, -25477,12, 0,00, 0,00, 0,00
230, -30782,31, -31195,10, -23740,84, -30774,62, -11952,06, -21826,05, -27010,94, -25493,21, 0,00, 0,00, 0,00
231, -30784,03, -31204,33, -23715,47, -30775,76, -11945,60, -21831,19, -27011,72, -25487,94, 0,00, 0,00, 0,00
232, -30778,04, -31204,42, -23709,57, -30777,01, -11944,82, -21845,61, -26998,72, -25474,60, 0,00, 0,00, 0,00
233, -30776,63, -31199,46, -23742,76, -30777,17, -11949,00, -21871,23, -27000,53, -25485,73, 0,00, 0,00, 0,00
234, -30779,38, -31197,69, -23747,52, -30779,78, -11951,28, -21855,31, -27011,10, -25498,82, 0,00, 0,00, 0,00
235, -30772,67, -31189,40, -23746,63, -30775,20, -11947,86, -21856,54, -27000,95, -25503,81, -0,10, 0,96, 0,26
236, -30768,09, -31187,70, -23755,23, -30770,15, -11945,82, -21878,69, -26993,69, -25487,92, 0,00, 0,00, 0,00
237, -30768,56, -31184,64, -23755,19, -30770,68, -11944,86, -21881,04, -26993,44, -25458,01, 0,00, 0,00, 0,00
238, -30765,52, -31184,35, -23769,45, -30770,62, -11947,70, -21883,63, -26999,05, -25469,01, 0,00, 0,00, 0,00
239, -30774,48, -31190,76, -23756,86, -30773,17, -11946,98, -21848,03, -27001,87, -25463,53, 0,00, 0,00, 0,00
240, -30773,75, -31191,61, -23711,49, -30778,89, -11949,22, -21817,80, -26996,64, -25466,39, 0,00, 0,00, 0,00
241, -30774,69, -31184,64, -23705,43, -30778,96, -11955,84, -21841,25, -27008,66, -25482,80, 0,00, 0,00, 0,00
242, -30777,66, -31196,53, -23717,26, -30779,71, -11958,16, -21864,83, -27014,72, -25477,34, 0,00, 0,00, 0,00
243, -30776,25, -31204,55, -23733,46, -30776,36, -11949,02, -21873,39, -27001,76, -25483,71, 0,00, 0,00, 0,00
244, -30777,01, -31199,44, -23749,31, -30775,20, -11948,77, -21862,08, -27008,42, -25495,16, 0,00, 0,00, 0,00
245, -30780,34, -31200,11, -23720,43, -30781,64, -11949,02, -21834,35, -27017,42, -25488,25, -0,10, 0,97, 0,26
246, -30779,07, -31195,88, -23709,12, -30782,64, -11953,38, -21847,64, -27019,48, -25503,88, 0,00, 0,00, 0,00
247, -30768,67, -31189,82, -23720,81, -30777,72, -11946,27, -21860,61, -27001,55, -25498,24, 0,00, 0,00, 0,00
248, -30773,99, -31195,12, -23725,01, -30779,63, -11944,35, -21853,54, -27000,97, -25475,15, 0,00, 0,00, 0,00
249, -30779,71, -31198,54, -23720,52, -30782,02, -11947,70, -21828,42, -27006,45, -25470,75, 0,00, 0,00, 0,00
250, -30768,74, -31190,88, -23688,85, -30777,03, -11940,26, -21803,97, -26986,09, -25469,88, 0,00, 0,00, 0,00
251, -30771,44, -31185,73, -23674,90, -30777,68, -11942,09, -21819,01, -26986,04, -25486,11, 0,00, 0,00, 0,00
252, -30778,96, -31183,57, -23685,76, -30774,57, -11937,33, -21841,21, -26988,81, -25491,92, 0,00, 0,00, 0,00
253, -30775,09, -31188,73, -23706,93, -30775,87, -11942,69, -21857,32, -27004,95, -25494,78, 0,00, 0,00, 0,00
254, -30770,93, -31183,07, -23713,05, -30771,22, -11934,18, -21840,49, -26990,96, -25476,05, 0,00, 0,00, 0,00
255, -30777,03, -31176,79, -23681,92, -30773,48, -11929,73, -21813,00, -26980,54, -25466,82, -0,10, 0,97, 0,26
0, -30776,45, -31188,37, -23665,94, -30774,60, -11935,07, -21822,95, -26989,95, -25489,97, 0,00, 0,00, 0,00
1, -30773,37, -31196,91, -23676,93, -30774,93, -11936,70, -21845,88, -26992,64, -25493,28, 0,00, 0,00, 0,00
2, -30778,22, -31196,31, -23683,93, -30779,51, -11938,56, -21853,72, -26998,09, -25493,91, 0,00, 0,00, 0,00
3, -30782,91, -31196,96, -23679,79, -30782,89, -11940,73, -21836,58, -26993,73, -25498,91, 0,00, 0,00, 0,00
4, -30776,54, -31189,15, -23692,42, -30777,32, -11945,29, -21847,47, -27010,90, -25503,16, 0,00, 0,00, 0,00
5, -30771,15, -31184,82, -23700,27, -30775,80, -11948,59, -21868,52, -27020,49, -25489,97, 0,00, 0,00, 0,00
6, -30761,52, -31174,89, -23709,30, -30772,81, -11943,18, -21878,83, -27007,70, -25472,14, 0,00, 0,00, 0,00
7, -30769,59, -31173,84, -23716,03, -30775,80, -11938,87, -21879,54, -26986,42, -25476,16, 0,00, 0,00, 0,00
8, -30771,47, -31183,34, -23704,18, -30777,08, -11935,88, -21852,18, -26976,81, -25481,50, 0,00, 0,00, 0,00
9, -30772,23, -31182,22, -23688,96, -30775,85, -11936,05, -21843,15, -26979,49, -25486,96, -0,11, 0,97, 0,26
10, -30775,54, -31183,39, -23674,72, -30779,78, -11935,45, -21854,10, -26976,61, -25488,12, 0,00, 0,00, 0,00
11, -30774,93, -31186,25, -23675,84, -30780,50, -11935,52, -21866,67, -26979,02, -25481,81, 0,00, 0,00, 0,00
12, -30774,10, -31183,99, -23714,02, -30780,68, -11938,76, -21889,20, -26981,44, -25485,26, 0,00, 0,00, 0,00
13, -30773,23, -31189,51, -23707,76, -30784,68, -11933,42, -21856,03, -26974,80, -25473,37, 0,00, 0,00, 0,00
14, -30777,93, -31196,17, -23686,63, -30791,29, -11939,12, -21836,56, -26987,65, -25478,22, 0,00, 0,00, 0,00
15, -30781,46, -31200,93, -23675,06, -30798,94, -11942,51, -21845,50, -27008,55, -25478,66, 0,00, 0,00, 0,00
16, -30782,38, -31194,63, -23687,01, -30802,24, -11940,68, -21861,50, -27002,34, -25473,14, 0,00, 0,00, 0,00
17, -30772,18, -31190,32, -23706,42, -30806,60, -11943,45, -21871,85, -26996,23, -25485,77, 0,00, 0,00, 0,00
18, -30786,73, -31189,67, -23706,46, -30809,91, -11941,46, -21846,24, -27001,24, -25481,66, 0,00, 0,00, 0,00
19, -30792,59, -31193,31, -23676,02, -30814,36, -11936,41, -21816,78, -26991,76, -25475,76, -0,10, 0,96, 0,26
20, -30784,65, -31192,06, -23660,19, -30813,64, -11937,22, -21822,57, -26985,46, -25473,14, 0,00, 0,00, 0,00
21, -30785,50, -31191,84, -23670,07, -30814,81, -11940,88, -21837,14, -26994,40, -25482,78, 0,00, 0,00, 0,00
22, -30786,22, -31195,66, -23682,75, -30814,02, -11940,66, -21843,22, -27004,68, -25474,35, 0,00, 0,00, 0,00
23, -30787,29, -31180,93, -23691,42, -30807,79, -11934,76, -21827,66, -26999,10, -25447,82, 0,00, 0,00, 0,00
24, -30795,09, -31193,24, -23659,32, -30813,53, -11934,20, -21805,40, -26988,68, -25445,43, 0,00, 0,00, 0,00
25, -30792,79, -31200,78, -23638,62, -30815,43, -11940,77, -21817,31, -26986,47, -25458,46, 0,00, 0,00, 0,00
26, -30782,22, -31195,28, -23669,13, -30809,44, -11945,69, -21857,68, -26993,17, -25474,06, 0,00, 0,00, 0,00
27, -30787,36, -31195,08, -23685,96, -30814,00, -11950,07, -21870,09, -27006,14, -25478,91, 0,00, 0,00, 0,00
28, -30782,60, -31191,48, -23685,14, -30815,61, -11955,08, -21853,66, -27029,23, -25470,46, -0,10, 0,96, 0,26
29, -30781,01, -31184,75, -23665,18, -30812,44, -11947,36, -21839,06, -27002,47, -25452,56, 0,00, 0,00, 0,00
30, -30790,13, -31185,76, -23639,38, -30811,19, -11943,68, -21842,77, -26961,68, -25436,49, 0,00, 0,00, 0,00
31, -30776,07, -31180,88, -23660,57, -30805,82, -11946,25, -21872,48, -26968,09, -25445,70, 0,00, 0,00, 0,00
32, -30775,58, -31180,64, -23677,52, -30804,64, -11946,14, -21878,15, -26983,94, -25463,91, 0,00, 0,00, 0,00
33, -30786,44, -31187,95, -23674,14, -30804,21, -11947,16, -21848,49, -26983,12, -25458,17, 0,00, 0,00, 0,00
34, -30788,77, -31188,17, -23659,41, -30804,14, -11949,58, -21828,87, -26993,13, -25460,76, 0,00, 0,00, 0,00
35, -30788,32, -31182,16, -23646,04, -30804,79, -11949,94, -21836,07, -27008,86, -25472,96, 0,00, 0,00, 0,00
36, -30785,97, -31184,01, -23642,98, -30809,33, -11953,44, -21845,81, -27015,55, -25464,76, 0,00, 0,00, 0,00
37, -30784,32, -31189,76, -23669,11, -30809,96, -11952,19, -21858,87, -27000,06, -25460,33, 0,00, 0,00, 0,00
38, -30780,03, -31183,57, -23696,18, -30805,66, -11947,54, -21848,31, -26980,90, -25457,74, -0,09, 0,97, 0,26
39, -30771,24, -31184,06, -23677,85, -30806,94, -11947,07, -21822,79, -26993,71, -25459,98, 0,00, 0,00, 0,00
40, -30773,12, -31180,82, -23662,74, -30808,66, -11950,47, -21830,05, -26999,28, -25474,82, 0,00, 0,00, 0,00
41, -30786,42, -31182,76, -23673,71, -30807,19, -11947,54, -21846,08, -26975,80, -25474,86, 0,00, 0,00, 0,00
42, -30794,38, -31188,55, -23684,15, -30806,83, -11947,39, -21846,86, -26978,71, -25467,38, 0,00, 0,00, 0,00
43, -30789,68, -31195,43, -23676,26, -30803,94, -11946,56, -21816,80, -26991,50, -25459,31, 0,00, 0,00, 0,00
44, -30784,79, -31191,46, -23673,22, -30802,29, -11949,26, -21811,93, -27001,15, -25472,96, 0,00, 0,00, 0,00
45, -30784,25, -31185,44, -23669,74, -30799,27, -11947,36, -21824,11, -26994,78, -25456,42, 0,00, 0,00, 0,00
46, -30779,60, -31179,68, -23687,13, -30794,76, -11942,78, -21843,44, -26986,31, -25444,55, 0,00, 0,00, 0,00
47, -30787,31, -31188,53, -23704,76, -30800,55, -11947,23, -21850,37, -27005,60, -25445,40, 0,00, 0,00, 0,00
48, -30782,51, -31179,19, -23722,98, -30794,80, -11944,15, -21842,04, -27005,06, -25454,14, -0,10, 0,96, 0,26
49, -30783,87, -31178,76, -23698,57, -30793,51, -11936,88, -21816,96, -26977,88, -25448,96, 0,00, 0,00, 0,00
50, -30775,56, -31175,81, -23681,94, -30785,06, -11931,25, -21821,49, -26953,77, -25446,77, 0,00, 0,00, 0,00
51, -30763,69, -31172,81, -23689,47, -30779,49, -11932,34, -21837,38, -26958,24, -25454,86, 0,00, 0,00, 0,00
52, -30773,03, -31170,22, -23710,10, -30776,47, -11929,89, -21847,13, -26957,79, -25446,95, 0,00, 0,00, 0,00
53, -30785,73, -31183,28, -23691,33, -30782,62, -11933,37, -21810,45, -26973,50, -25436,73, 0,00, 0,00, 0,00
54, -30789,35, -31188,51, -23656,04, -30784,03, -11937,87, -21786,45, -26980,19, -25441,51, 0,00, 0,00, 0,00
55, -30776,36, -31178,02, -23664,98, -30778,26, -11941,17, -21818,25, -26987,34, -25468,38, 0,00, 0,00, 0,00
56, -30777,99, -31177,98, -23683,10, -30779,29, -11944,01, -21844,25, -26991,72, -25487,89, 0,00, 0,00, 0,00
57, -30778,71, -31177,08, -23712,16, -30774,04, -11943,18, -21857,93, -27002,52, -25484,74, 0,00, 0,00, 0,00
58, -30779,07, -31178,25, -23708,25, -30772,09, -11941,73, -21825,38, -27005,18, -25464,00, -0,11, 0,96, 0,26
59, -30782,29, -31179,21, -23679,39, -30773,43, -11942,78, -21795,36, -26989,53, -25456,18, 0,00, 0,00, 0,00
60, -30779,22, -31177,13, -23670,18, -30770,17, -11942,34, -21803,46, -26977,82, -25469,72, 0,00, 0,00, 0,00
61, -30778,40, -31178,63, -23674,74, -30770,93, -11942,51, -21815,91, -26991,45, -25462,01, 0,00, 0,00, 0,00
62, -30772,18, -31177,62, -23678,39, -30772,14, -11943,18, -21817,51, -27001,80, -25449,49, 0,00, 0,00, 0,00
63, -30781,14, -31178,02, -23673,11, -30765,95, -11938,54, -21793,51, -26984,52, -25444,20, 0,00, 0,00, 0,00
64, -30784,92, -31176,62, -23658,92, -30765,61, -11938,67, -21782,91, -26982,85, -25458,66, 0,00, 0,00, 0,00
65, -30784,92, -31182,78, -23643,54, -30763,71, -11942,20, -21794,00, -26991,38, -25465,83, 0,00, 0,00, 0,00
66, -30785,53, -31185,29, -23656,01, -30757,92, -11940,77, -21811,39, -26986,02, -25455,84, 0,00, 0,00, 0,00
67, -30781,62, -31173,75, -23687,42, -30751,71, -11935,47, -21827,08, -26971,04, -25456,98, 0,00, 0,00, 0,00
68, -30785,82, -31175,43, -23689,03, -30752,78, -11933,17, -21800,53, -26972,38, -25452,09, -0,10, 0,96, 0,26
