%OpenBCI Raw EEG Data
%
%Sample Rate = 250.0 Hz
%First Column = SampleIndex
%Other Columns = EEG data in microvolts followed by Accel Data (in G) interleaved with Aux Data
0, -21931,66, -17854,95, -9563,91, -17340,35, -13059,03, 4669,30, -16526,21, -14955,19, -0,16, 0,96, 0,24
1, -21931,17, -17852,29, -9344,46, -17333,89, -13046,96, 4840,78, -16515,64, -14918,98, 0,00, 0,00, 0,00
2, -21934,06, -17862,40, -9291,58, -17345,49, -13055,92, 4884,62, -16524,26, -14936,84, 0,00, 0,00, 0,00
3, -21926,41, -17862,08, -9490,28, -17355,21, -13074,12, 4733,34, -16559,65, -14964,16, 0,00, 0,00, 0,00
4, -21919,86, -17852,83, -9681,68, -17332,03, -13071,99, 4578,64, -16571,34, -14957,56, 0,00, 0,00, 0,00
5, -21929,88, -17855,60, -9589,01, -17327,94, -13055,74, 4635,33, -16542,10, -14958,99, 0,00, 0,00, 0,00
6, -21943,27, -17865,99, -9354,92, -17340,19, -13047,70, 4819,68, -16526,19, -14952,89, 0,00, 0,00, 0,00
7, -21943,49, -17871,38, -9286,50, -17344,60, -13047,54, 4880,15, -16512,60, -14943,75, -0,14, 0,95, 0,26
8, -21936,05, -17872,07, -9492,09, -17352,49, -13065,73, 4725,63, -16539,64, -14965,54, 0,00, 0,00, 0,00
9, -21929,61, -17861,64, -9687,00, -17344,42, -13067,70, 4572,41, -16548,38, -14997,82, 0,00, 0,00, 0,00
10, -21942,97, -17866,22, -9610,11, -17337,40, -13052,08, 4619,17, -16529,29, -14964,76, 0,00, 0,00, 0,00
11, -21960,63, -17881,06, -9377,76, -17356,82, -13049,24, 4804,33, -16535,35, -14944,96, 0,00, 0,00, 0,00
12, -21964,41, -17894,09, -9304,70, -17375,33, -13059,21, 4871,14, -16537,63, -14944,82, 0,00, 0,00, 0,00
13, -21954,29, -17894,29, -9503,11, -17377,83, -13071,99, 4727,53, -16542,97, -14952,22, 0,00, 0,00, 0,00
14, -21942,91, -17879,25, -9711,16, -17356,44, -13065,24, 4564,90, -16534,28, -14962,75, 0,00, 0,00, 0,00
15, -21952,90, -17880,23, -9623,01, -17348,17, -13040,72, 4626,65, -16494,45, -14940,26, 0,00, 0,00, 0,00
16, -21975,41, -17901,27, -9368,42, -17359,95, -13036,34, 4834,21, -16490,89, -14943,64, 0,00, 0,00, 0,00
17, -21976,86, -17910,27, -9309,14, -17378,71, -13056,10, 4885,33, -16519,53, -14987,56, -0,14, 0,95, 0,25
18, -21962,22, -17903,26, -9535,08, -17371,26, -13073,09, 4709,69, -16555,09, -15016,37, 0,00, 0,00, 0,00
19, -21962,44, -17901,33, -9721,80, -17349,07, -13066,92, 4568,45, -16551,89, -14978,89, 0,00, 0,00, 0,00
20, -21974,16, -17902,03, -9633,98, -17345,09, -13050,49, 4627,55, -16527,08, -14952,80, 0,00, 0,00, 0,00
21, -21981,98, -17904,51, -9387,15, -17352,46, -13041,30, 4824,98, -16505,06, -14933,65, 0,00, 0,00, 0,00
22, -21980,57, -17908,91, -9321,71, -17359,97, -13054,13, 4879,59, -16507,68, -14929,47, 0,00, 0,00, 0,00
23, -21966,89, -17902,54, -9541,67, -17358,05, -13077,71, 4708,73, -16557,19, -14956,80, 0,00, 0,00, 0,00
24, -21959,74, -17894,29, -9750,14, -17338,14, -13074,41, 4538,52, -16549,86, -14991,25, 0,00, 0,00, 0,00
25, -21968,79, -17894,22, -9643,57, -17333,58, -13054,02, 4609,96, -16514,18, -14952,22, 0,00, 0,00, 0,00
26, -21980,91, -17903,70, -9398,30, -17343,25, -13046,96, 4802,38, -16499,30, -14913,22, -0,14, 0,95, 0,26
27, -21983,14, -17913,56, -9342,60, -17351,90, -13060,28, 4847,20, -16524,09, -14924,30, 0,00, 0,00, 0,00
28, -21970,24, -17909,42, -9550,54, -17357,49, -13076,02, 4689,60, -16549,34, -14948,73, 0,00, 0,00, 0,00
29, -21961,84, -17900,30, -9743,48, -17345,27, -13068,53, 4537,60, -16538,53, -14956,87, 0,00, 0,00, 0,00
30, -21967,94, -17898,23, -9658,37, -17339,10, -13052,81, 4587,74, -16523,53, -14959,55, 0,00, 0,00, 0,00
31, -21983,03, -17912,89, -9409,97, -17358,39, -13049,93, 4782,27, -16513,51, -14971,33, 0,00, 0,00, 0,00
32, -21983,39, -17919,28, -9322,53, -17371,31, -13059,21, 4862,06, -16516,64, -14979,27, 0,00, 0,00, 0,00
33, -21964,41, -17906,29, -9516,23, -17365,61, -13072,78, 4724,22, -16547,91, -14956,24, 0,00, 0,00, 0,00
34, -21956,21, -17894,83, -9712,97, -17348,91, -13076,75, 4575,60, -16586,69, -14954,10, 0,00, 0,00, 0,00
35, -21961,17, -17890,02, -9647,04, -17343,21, -13057,91, 4614,58, -16563,36, -14945,43, 0,00, 0,00, 0,00
36, -21971,85, -17897,58, -9408,68, -17352,42, -13037,35, 4806,70, -16492,39, -14928,89, -0,13, 0,96, 0,27
37, -21974,13, -17906,41, -9338,67, -17362,88, -13048,08, 4873,57, -16485,69, -14947,30, 0,00, 0,00, 0,00
38, -21968,10, -17905,85, -9539,54, -17368,18, -13071,43, 4725,54, -16525,07, -14983,38, 0,00, 0,00, 0,00
39, -21967,65, -17899,86, -9724,06, -17364,76, -13079,21, 4582,22, -16562,11, -15011,14, 0,00, 0,00, 0,00
40, -21974,38, -17898,27, -9660,74, -17363,21, -13060,46, 4614,47, -16533,90, -15007,21, 0,00, 0,00, 0,00
41, -21982,31, -17902,16, -9428,70, -17358,63, -13037,59, 4801,56, -16480,86, -14957,07, 0,00, 0,00, 0,00
42, -21981,35, -17908,31, -9349,73, -17361,43, -13043,47, 4879,30, -16483,45, -14920,95, 0,00, 0,00, 0,00
43, -21970,24, -17905,67, -9542,61, -17359,06, -13059,50, 4739,13, -16505,11, -14960,94, 0,00, 0,00, 0,00
44, -21959,04, -17893,40, -9733,29, -17352,15, -13060,66, 4592,39, -16514,99, -14982,28, 0,00, 0,00, 0,00
45, -21961,62, -17887,90, -9658,41, -17350,47, -13042,33, 4638,12, -16498,92, -14948,82, 0,00, 0,00, 0,00
46, -21972,10, -17896,17, -9420,14, -17354,47, -13032,41, 4825,36, -16490,76, -14940,15, -0,14, 0,96, 0,27
47, -21973,20, -17906,56, -9362,01, -17364,13, -13045,62, 4869,39, -16508,97, -14971,85, 0,00, 0,00, 0,00
48, -21956,95, -17893,96, -9554,90, -17356,78, -13056,84, 4724,00, -16530,28, -14953,34, 0,00, 0,00, 0,00
49, -21948,38, -17882,24, -9750,14, -17337,85, -13061,53, 4571,74, -16544,94, -14956,27, 0,00, 0,00, 0,00
50, -21950,02, -17876,34, -9679,38, -17339,86, -13045,64, 4609,87, -16521,83, -14948,60, 0,00, 0,00, 0,00
51, -21959,16, -17881,93, -9428,12, -17343,50, -13032,47, 4810,12, -16499,54, -14919,79, 0,00, 0,00, 0,00
52, -21964,05, -17893,51, -9336,68, -17356,22, -13049,89, 4891,17, -16518,81, -14943,73, 0,00, 0,00, 0,00
53, -21948,36, -17885,93, -9540,84, -17352,51, -13065,73, 4735,53, -16550,95, -14972,20, 0,00, 0,00, 0,00
54, -21940,07, -17875,56, -9729,96, -17345,89, -13062,87, 4587,85, -16552,40, -14974,84, 0,00, 0,00, 0,00
55, -21945,14, -17871,49, -9654,77, -17347,32, -13053,71, 4630,74, -16559,31, -14977,10, 0,00, 0,00, 0,00
56, -21954,51, -17876,14, -9409,41, -17357,98, -13048,63, 4825,45, -16574,42, -14944,80, -0,14, 0,96, 0,27
57, -21954,82, -17881,13, -9314,69, -17356,11, -13039,69, 4912,69, -16512,48, -14920,71, 0,00, 0,00, 0,00
58, -21953,50, -17887,23, -9502,82, -17361,18, -13053,62, 4776,01, -16502,00, -14938,56, 0,00, 0,00, 0,00
59, -21949,23, -17880,52, -9703,90, -17357,34, -13056,55, 4617,54, -16508,19, -14948,67, 0,00, 0,00, 0,00
60, -21953,90, -17873,71, -9633,87, -17359,50, -13042,24, 4655,22, -16501,04, -14930,21, 0,00, 0,00, 0,00
61, -21971,32, -17886,85, -9372,53, -17368,58, -13038,44, 4864,66, -16494,83, -14921,82, 0,00, 0,00, 0,00
62, -21967,56, -17890,29, -9326,69, -17367,66, -13056,26, 4900,20, -16522,95, -14964,47, 0,00, 0,00, 0,00
63, -21958,22, -17886,65, -9538,99, -17374,44, -13068,08, 4735,02, -16546,15, -14978,95, 0,00, 0,00, 0,00
64, -21955,60, -17881,55, -9719,30, -17353,89, -13061,91, 4596,32, -16531,35, -14952,74, 0,00, 0,00, 0,00
65, -21964,88, -17880,32, -9616,77, -17345,15, -13040,54, 4665,73, -16491,72, -14915,77, 0,00, 0,00, 0,00
66, -21970,89, -17883,67, -9381,74, -17350,70, -13031,07, 4850,24, -16487,83, -14914,96, -0,13, 0,96, 0,27
67, -21972,79, -17890,60, -9337,02, -17370,61, -13046,69, 4882,83, -16518,41, -14966,39, 0,00, 0,00, 0,00
68, -21964,66, -17891,50, -9536,55, -17364,55, -13057,87, 4728,87, -16538,26, -14986,93, 0,00, 0,00, 0,00
69, -21951,31, -17878,87, -9730,65, -17345,00, -13049,10, 4575,31, -16530,05, -14960,67, 0,00, 0,00, 0,00
70, -21963,00, -17879,92, -9639,73, -17346,96, -13030,89, 4629,74, -16505,73, -14941,74, 0,00, 0,00, 0,00
71, -21976,39, -17889,78, -9397,83, -17349,74, -13022,17, 4820,51, -16495,36, -14933,11, 0,00, 0,00, 0,00
72, -21978,09, -17896,68, -9324,43, -17360,17, -13031,63, 4884,82, -16508,21, -14912,73, 0,00, 0,00, 0,00
73, -21968,21, -17894,34, -9509,30, -17355,55, -13051,72, 4744,96, -16538,41, -14938,05, 0,00, 0,00, 0,00
74, -21961,93, -17885,02, -9706,98, -17353,71, -13059,95, 4584,41, -16557,97, -14971,22, 0,00, 0,00, 0,00
75, -21964,84, -17878,45, -9641,80, -17346,21, -13043,92, 4616,33, -16531,80, -14949,05, 0,00, 0,00, 0,00
76, -21973,96, -17884,66, -9396,54, -17362,14, -13033,28, 4814,86, -16496,08, -14912,88, -0,13, 0,96, 0,27
77, -21971,09, -17887,34, -9340,82, -17366,32, -13054,78, 4863,92, -16530,34, -14943,15, 0,00, 0,00, 0,00
78, -21962,29, -17885,31, -9534,16, -17346,56, -13077,31, 4719,62, -16569,53, -14973,99, 0,00, 0,00, 0,00
79, -21960,34, -17880,54, -9730,99, -17348,19, -13085,14, 4561,61, -16585,40, -14983,47, 0,00, 0,00, 0,00
80, -21964,14, -17876,10, -9653,03, -17356,38, -13073,56, 4606,72, -16570,04, -14989,68, 0,00, 0,00, 0,00
81, -21968,17, -17878,13, -9404,54, -17361,96, -13057,15, 4807,35, -16524,87, -14966,03, 0,00, 0,00, 0,00
82, -21964,14, -17881,17, -9334,69, -17357,63, -13064,57, 4874,56, -16522,16, -14940,69, 0,00, 0,00, 0,00
83, -21957,50, -17879,29, -9524,08, -17361,76, -13083,44, 4735,55, -16554,84, -14962,41, 0,00, 0,00, 0,00
84, -21952,12, -17872,25, -9709,35, -17352,69, -13082,90, 4592,55, -16554,10, -14957,94, 0,00, 0,00, 0,00
85, -21957,04, -17868,41, -9629,04, -17347,17, -13062,20, 4641,63, -16523,86, -14933,51, 0,00, 0,00, 0,00
86, -21962,35, -17871,83, -9405,64, -17354,21, -13053,73, 4816,33, -16516,40, -14929,15, -0,14, 0,96, 0,28
87, -21964,16, -17878,73, -9326,64, -17366,16, -13066,81, 4883,57, -16531,57, -14953,29, 0,00, 0,00, 0,00
88, -21953,48, -17875,96, -9539,41, -17363,75, -13086,14, 4718,52, -16571,78, -14992,70, 0,00, 0,00, 0,00
89, -21956,27, -17876,84, -9719,66, -17359,41, -13076,69, 4579,96, -16550,48, -14982,02, 0,00, 0,00, 0,00
90, -21962,64, -17877,82, -9629,11, -17357,49, -13052,86, 4638,70, -16514,59, -14936,89, 0,00, 0,00, 0,00
91, -21972,52, -17884,46, -9397,03, -17363,71, -13044,50, 4819,39, -16510,07, -14930,38, 0,00, 0,00, 0,00
92, -21971,76, -17890,04, -9330,78, -17367,55, -13060,41, 4874,20, -16548,38, -14954,55, 0,00, 0,00, 0,00
93, -21961,37, -17884,70, -9533,49, -17370,34, -13074,79, 4719,32, -16586,00, -14966,91, 0,00, 0,00, 0,00
94, -21956,83, -17878,91, -9722,16, -17355,37, -13062,47, 4575,04, -16543,91, -14978,22, 0,00, 0,00, 0,00
95, -21964,37, -17878,96, -9638,99, -17354,54, -13043,29, 4627,55, -16498,92, -14977,17, -0,13, 0,95, 0,27
96, -21975,14, -17887,43, -9395,18, -17352,31, -13029,48, 4825,14, -16480,61, -14920,77, 0,00, 0,00, 0,00
97, -21976,37, -17898,16, -9318,08, -17364,27, -13039,65, 4899,01, -16500,79, -14913,06, 0,00, 0,00, 0,00
98, -21971,79, -17899,34, -9503,27, -17376,40, -13056,70, 4767,27, -16527,93, -14938,63, 0,00, 0,00, 0,00
99, -21963,16, -17889,60, -9692,97, -17367,04, -13060,59, 4621,71, -16541,61, -14967,64, 0,00, 0,00, 0,00
100, -21963,18, -17883,70, -9638,38, -17361,63, -13045,68, 4648,09, -16522,28, -14967,58, 0,00, 0,00, 0,00
101, -21979,72, -17894,16, -9389,97, -17365,67, -13039,16, 4847,02, -16507,23, -14958,84, 0,00, 0,00, 0,00
102, -21982,67, -17903,39, -9306,44, -17378,57, -13051,97, 4924,40, -16521,52, -14947,93, 0,00, 0,00, 0,00
103, -21969,84, -17897,55, -9508,39, -17385,34, -13074,12, 4771,85, -16557,08, -14977,25, 0,00, 0,00, 0,00
104, -21958,71, -17884,10, -9706,60, -17365,54, -13076,13, 4619,50, -16573,86, -14973,41, 0,00, 0,00, 0,00
105, -21965,48, -17881,51, -9625,64, -17358,97, -13057,80, 4674,55, -16530,48, -14945,92, -0,13, 0,96, 0,27
106, -21977,22, -17889,08, -9381,72, -17368,94, -13044,39, 4869,19, -16481,71, -14917,00, 0,00, 0,00, 0,00
107, -21982,31, -17901,29, -9306,91, -17393,26, -13067,86, 4931,55, -16508,66, -14943,46, 0,00, 0,00, 0,00
108, -21970,09, -17899,03, -9502,87, -17385,79, -13090,23, 4777,75, -16543,78, -14980,41, 0,00, 0,00, 0,00
109, -21955,49, -17884,55, -9713,96, -17366,25, -13088,67, 4603,81, -16550,01, -14970,68, 0,00, 0,00, 0,00
110, -21961,79, -17880,97, -9643,24, -17357,36, -13070,14, 4639,55, -16516,06, -14960,07, 0,00, 0,00, 0,00
111, -21972,84, -17889,73, -9396,65, -17365,81, -13058,98, 4831,35, -16499,12, -14960,85, 0,00, 0,00, 0,00
112, -21966,71, -17889,49, -9319,29, -17374,30, -13070,07, 4894,07, -16527,13, -14979,38, 0,00, 0,00, 0,00
113, -21948,38, -17877,77, -9521,15, -17376,38, -13091,30, 4738,30, -16571,22, -15005,13, 0,00, 0,00, 0,00
114, -21939,55, -17869,04, -9716,57, -17360,51, -13083,97, 4584,54, -16560,72, -15003,43, 0,00, 0,00, 0,00
115, -21943,94, -17865,97, -9637,22, -17347,61, -13057,80, 4635,06, -16527,82, -14975,98, -0,13, 0,95, 0,26
116, -21951,00, -17870,55, -9414,73, -17351,64, -13049,66, 4810,36, -16513,36, -14968,45, 0,00, 0,00, 0,00
117, -21955,31, -17878,78, -9339,72, -17356,58, -13056,06, 4877,93, -16512,82, -14952,29, 0,00, 0,00, 0,00
118, -21946,39, -17874,71, -9522,04, -17359,30, -13070,85, 4750,37, -16541,36, -14940,67, 0,00, 0,00, 0,00
119, -21941,32, -17866,55, -9709,87, -17342,34, -13069,42, 4611,08, -16549,48, -14958,28, 0,00, 0,00, 0,00
120, -21946,37, -17861,86, -9642,18, -17334,20, -13053,64, 4652,58, -16530,81, -14980,47, 0,00, 0,00, 0,00
121, -21955,85, -17868,03, -9391,67, -17345,40, -13039,36, 4860,30, -16497,55, -14920,82, 0,00, 0,00, 0,00
122, -21956,50, -17876,50, -9311,13, -17363,51, -13054,13, 4935,53, -16517,94, -14922,40, 0,00, 0,00, 0,00
123, -21943,06, -17871,63, -9501,86, -17349,60, -13067,41, 4797,18, -16549,74, -14939,01, 0,00, 0,00, 0,00
124, -21937,37, -17862,37, -9705,44, -17350,34, -13069,67, 4639,35, -16556,70, -14952,74, 0,00, 0,00, 0,00
125, -21944,85, -17861,23, -9642,41, -17350,18, -13054,47, 4674,04, -16539,55, -14949,63, -0,13, 0,96, 0,26
126, -21953,75, -17866,11, -9413,19, -17352,06, -13042,49, 4856,07, -16515,03, -14946,61, 0,00, 0,00, 0,00
127, -21962,29, -17878,94, -9340,75, -17372,58, -13054,27, 4920,76, -16512,15, -14953,61, 0,00, 0,00, 0,00
128, -21960,83, -17885,66, -9514,04, -17386,79, -13077,87, 4796,10, -16534,77, -14988,45, 0,00, 0,00, 0,00
129, -21949,41, -17872,63, -9718,72, -17357,63, -13075,14, 4633,49, -16540,65, -14994,47, 0,00, 0,00, 0,00
130, -21951,11, -17867,74, -9663,35, -17347,97, -13051,29, 4659,89, -16507,86, -14934,00, 0,00, 0,00, 0,00
131, -21968,66, -17883,50, -9414,31, -17365,00, -13044,39, 4859,67, -16496,21, -14916,01, 0,00, 0,00, 0,00
132, -21968,21, -17890,04, -9342,83, -17377,45, -13062,38, 4921,21, -16535,08, -14939,59, 0,00, 0,00, 0,00
133, -21953,84, -17884,39, -9546,65, -17378,17, -13077,87, 4763,60, -16562,62, -14978,55, 0,00, 0,00, 0,00
134, -21948,85, -17878,06, -9756,38, -17357,52, -13077,36, 4596,59, -16555,40, -14993,10, 0,00, 0,00, 0,00
135, -21955,09, -17873,64, -9684,90, -17358,83, -13064,42, 4636,82, -16536,89, -14989,57, -0,13, 0,95, 0,26
136, -21956,39, -17870,33, -9442,65, -17358,88, -13048,55, 4828,80, -16506,43, -14951,46, 0,00, 0,00, 0,00
137, -21952,99, -17874,09, -9361,49, -17361,47, -13052,95, 4904,44, -16496,57, -14935,86, 0,00, 0,00, 0,00
138, -21940,94, -17869,30, -9546,03, -17360,69, -13072,08, 4773,86, -16524,44, -14968,09, 0,00, 0,00, 0,00
139, -21932,51, -17858,62, -9740,42, -17345,02, -13071,95, 4630,36, -16539,13, -14968,11, 0,00, 0,00, 0,00
140, -21938,39, -17855,67, -9680,81, -17343,90, -13059,63, 4664,52, -16532,82, -14971,29, 0,00, 0,00, 0,00
141, -21945,19, -17858,42, -9439,63, -17337,67, -13042,47, 4860,41, -16512,96, -14936,44, 0,00, 0,00, 0,00
142, -21941,68, -17863,00, -9360,17, -17348,24, -13048,52, 4934,97, -16513,51, -14934,67, 0,00, 0,00, 0,00
143, -21933,65, -17863,25, -9533,42, -17357,09, -13066,23, 4811,46, -16528,35, -14967,33, 0,00, 0,00, 0,00
144, -21929,12, -17855,94, -9737,92, -17353,25, -13071,68, 4648,96, -16541,56, -14971,51, 0,00, 0,00, 0,00
145, -21935,76, -17855,47, -9668,60, -17344,30, -13056,23, 4686,91, -16522,52, -14950,88, -0,14, 0,96, 0,26
146, -21947,58, -17864,88, -9423,61, -17352,31, -13043,52, 4881,33, -16497,44, -14915,61, 0,00, 0,00, 0,00
147, -21951,96, -17876,34, -9354,14, -17366,41, -13057,29, 4941,70, -16510,36, -14924,75, 0,00, 0,00, 0,00
148, -21940,27, -17872,25, -9542,23, -17362,59, -13074,47, 4799,70, -16538,37, -14954,79, 0,00, 0,00, 0,00
149, -21934,26, -17864,27, -9739,44, -17364,89, -13079,93, 4641,34, -16555,96, -14984,85, 0,00, 0,00, 0,00
150, -21940,40, -17861,30, -9676,07, -17349,92, -13067,97, 4669,39, -16557,57, -14975,94, 0,00, 0,00, 0,00
151, -21954,89, -17871,36, -9440,59, -17364,94, -13062,90, 4852,41, -16553,93, -14955,80, 0,00, 0,00, 0,00
152, -21952,70, -17875,11, -9361,56, -17361,20, -13064,37, 4920,11, -16515,64, -14946,81, 0,00, 0,00, 0,00
153, -21942,68, -17870,04, -9561,61, -17365,65, -13076,37, 4768,83, -16501,09, -14957,38, 0,00, 0,00, 0,00
154, -21941,07, -17866,13, -9765,95, -17372,54, -13083,84, 4606,60, -16519,21, -14972,47, 0,00, 0,00, 0,00
155, -21945,86, -17864,43, -9672,81, -17348,51, -13060,19, 4666,24, -16484,30, -14924,39, -0,13, 0,96, 0,27
156, -21955,47, -17873,26, -9424,08, -17355,71, -13051,21, 4863,09, -16468,38, -14901,26, 0,00, 0,00, 0,00
157, -21950,96, -17874,58, -9361,71, -17362,03, -13065,64, 4913,94, -16503,88, -14923,12, 0,00, 0,00, 0,00
158, -21942,19, -17873,55, -9564,96, -17361,36, -13088,38, 4758,53, -16547,87, -14960,11, 0,00, 0,00, 0,00
159, -21932,47, -17862,66, -9779,42, -17348,80, -13088,31, 4586,15, -16546,28, -14994,71, 0,00, 0,00, 0,00
160, -21941,97, -17857,97, -9701,42, -17345,13, -13065,18, 4635,37, -16506,20, -14981,57, 0,00, 0,00, 0,00
161, -21956,50, -17868,36, -9432,23, -17349,02, -13054,40, 4860,36, -16502,63, -14932,62, 0,00, 0,00, 0,00
162, -21954,69, -17874,96, -9356,60, -17351,75, -13066,85, 4933,30, -16523,17, -14929,53, 0,00, 0,00, 0,00
163, -21941,90, -17870,31, -9544,04, -17354,72, -13079,23, 4799,43, -16529,14, -14963,62, 0,00, 0,00, 0,00
164, -21931,93, -17859,63, -9741,74, -17332,44, -13074,88, 4651,42, -16532,00, -14951,84, 0,00, 0,00, 0,00
165, -21937,10, -17858,60, -9671,17, -17326,87, -13058,02, 4698,18, -16517,31, -14925,94, -0,13, 0,95, 0,27
166, -21945,61, -17864,97, -9445,87, -17337,87, -13048,52, 4876,68, -16494,85, -14933,02, 0,00, 0,00, 0,00
167, -21948,38, -17873,10, -9373,14, -17359,10, -13060,84, 4940,20, -16509,49, -14957,47, 0,00, 0,00, 0,00
168, -21935,40, -17867,80, -9551,39, -17346,12, -13073,29, 4810,77, -16526,66, -14972,92, 0,00, 0,00, 0,00
169, -21928,07, -17859,00, -9745,54, -17337,76, -13070,74, 4661,63, -16522,97, -14955,69, 0,00, 0,00, 0,00
170, -21929,94, -17852,31, -9674,88, -17337,00, -13056,50, 4698,65, -16513,02, -14935,46, 0,00, 0,00, 0,00
171, -21941,39, -17862,78, -9435,99, -17345,76, -13053,31, 4882,07, -16516,80, -14959,15, 0,00, 0,00, 0,00
172, -21944,07, -17873,39, -9364,31, -17359,24, -13063,41, 4940,16, -16527,01, -14963,69, 0,00, 0,00, 0,00
173, -21938,08, -17876,41, -9552,06, -17360,15, -13074,56, 4799,66, -16533,18, -14949,87, 0,00, 0,00, 0,00
174, -21928,29, -17863,67, -9754,59, -17349,56, -13070,83, 4638,55, -16517,83, -14947,82, -0,13, 0,96, 0,27
175, -21930,97, -17853,16, -9687,20, -17341,35, -13054,63, 4672,34, -16502,94, -14925,80, 0,00, 0,00, 0,00
176, -21944,36, -17863,49, -9442,34, -17350,45, -13046,80, 4865,06, -16495,47, -14925,87, 0,00, 0,00, 0,00
177, -21946,35, -17871,81, -9357,51, -17370,54, -13057,08, 4937,70, -16502,87, -14950,39, 0,00, 0,00, 0,00
178, -21927,89, -17862,24, -9543,17, -17367,84, -13069,53, 4800,24, -16516,87, -14959,51, 0,00, 0,00, 0,00
179, -21915,86, -17849,01, -9752,65, -17345,98, -13069,71, 4636,33, -16517,13, -14968,25, 0,00, 0,00, 0,00
180, -21922,93, -17846,44, -9691,92, -17345,87, -13060,93, 4667,56, -16519,15, -14981,41, 0,00, 0,00, 0,00
181, -21932,60, -17852,31, -9439,63, -17338,74, -13051,03, 4870,15, -16500,10, -14959,06, 0,00, 0,00, 0,00
182, -21936,00, -17860,07, -9352,46, -17343,14, -13061,40, 4950,26, -16507,52, -14930,61, 0,00, 0,00, 0,00
183, -21915,97, -17848,34, -9547,77, -17340,57, -13078,47, 4807,99, -16535,95, -14944,89, 0,00, 0,00, 0,00
184, -21908,49, -17838,48, -9750,75, -17336,15, -13081,20, 4650,93, -16538,03, -14970,24, -0,13, 0,96, 0,26
185, -21914,66, -17835,06, -9670,97, -17324,93, -13064,64, 4700,50, -16508,44, -14969,23, 0,00, 0,00, 0,00
186, -21924,31, -17842,93, -9423,92, -17320,99, -13054,00, 4899,75, -16498,69, -14933,40, 0,00, 0,00, 0,00
187, -21926,12, -17852,03, -9349,31, -17330,96, -13070,65, 4966,89, -16527,48, -14937,92, 0,00, 0,00, 0,00
188, -21911,35, -17845,63, -9557,99, -17332,30, -13088,26, 4809,94, -16545,72, -14962,59, 0,00, 0,00, 0,00
189, -21905,38, -17836,54, -9766,80, -17322,31, -13084,00, 4647,46, -16540,42, -14961,50, 0,00, 0,00, 0,00
190, -21914,25, -17837,18, -9688,50, -17324,90, -13065,24, 4697,76, -16516,20, -14935,79, 0,00, 0,00, 0,00
191, -21924,27, -17843,89, -9447,50, -17331,36, -13053,91, 4889,31, -16492,88, -14936,26, 0,00, 0,00, 0,00
192, -21925,21, -17853,66, -9390,84, -17335,25, -13072,80, 4934,66, -16526,23, -14985,30, 0,00, 0,00, 0,00
193, -21920,76, -17854,89, -9586,10, -17343,70, -13092,89, 4785,02, -16569,88, -15025,80, 0,00, 0,00, 0,00
194, -21919,15, -17853,08, -9777,97, -17346,36, -13089,61, 4636,49, -16564,97, -14996,52, -0,14, 0,95, 0,27
195, -21922,39, -17845,30, -9721,98, -17336,17, -13066,40, 4664,83, -16531,28, -14956,24, 0,00, 0,00, 0,00
196, -21933,65, -17852,47, -9479,98, -17340,13, -13046,22, 4856,16, -16487,16, -14924,97, 0,00, 0,00, 0,00
197, -21938,73, -17863,13, -9399,31, -17354,56, -13052,97, 4926,23, -16501,89, -14910,56, 0,00, 0,00, 0,00
198, -21928,65, -17858,89, -9590,40, -17347,41, -13064,84, 4782,94, -16512,93, -14940,67, 0,00, 0,00, 0,00
199, -21927,40, -17858,15, -9784,83, -17344,97, -13064,50, 4629,63, -16516,40, -14956,96, 0,00, 0,00, 0,00
200, -21932,80, -17857,34, -9709,02, -17339,48, -13048,72, 4672,65, -16502,65, -14955,55, 0,00, 0,00, 0,00
201, -21938,33, -17858,53, -9473,09, -17347,17, -13038,08, 4854,20, -16488,97, -14951,62, 0,00, 0,00, 0,00
202, -21931,29, -17857,90, -9403,24, -17353,13, -13046,76, 4913,00, -16505,67, -14963,44, 0,00, 0,00, 0,00
203, -21924,09, -17859,20, -9576,90, -17357,34, -13067,92, 4787,79, -16533,81, -14975,22, 0,00, 0,00, 0,00
204, -21913,69, -17844,65, -9769,19, -17333,29, -13068,21, 4641,50, -16533,41, -14971,76, -0,14, 0,95, 0,27
205, -21910,01, -17832,27, -9700,81, -17327,94, -13051,50, 4680,70, -16506,52, -14944,08, 0,00, 0,00, 0,00
206, -21922,97, -17838,75, -9451,14, -17341,69, -13048,52, 4877,73, -16499,45, -14955,02, 0,00, 0,00, 0,00
207, -21920,96, -17844,38, -9365,31, -17339,39, -13063,14, 4954,20, -16524,42, -14966,19, 0,00, 0,00, 0,00
208, -21909,38, -17839,57, -9554,50, -17337,89, -13077,09, 4818,21, -16544,31, -14959,71, 0,00, 0,00, 0,00
209, -21898,94, -17827,91, -9776,36, -17329,31, -13079,15, 4645,99, -16557,59, -14974,08, 0,00, 0,00, 0,00
210, -21908,08, -17826,61, -9731,64, -17329,57, -13066,70, 4662,17, -16553,21, -14980,07, 0,00, 0,00, 0,00
211, -21922,84, -17838,70, -9468,29, -17331,27, -13042,24, 4875,52, -16509,76, -14926,92, 0,00, 0,00, 0,00
212, -21923,02, -17846,48, -9380,33, -17334,92, -13051,03, 4954,58, -16514,05, -14918,22, 0,00, 0,00, 0,00
213, -21913,43, -17843,89, -9593,12, -17343,57, -13077,13, 4786,80, -16566,24, -14973,37, 0,00, 0,00, 0,00
214, -21907,48, -17838,57, -9791,05, -17335,23, -13070,70, 4631,04, -16550,88, -14980,50, -0,14, 0,96, 0,27
215, -21913,67, -17837,27, -9721,58, -17327,81, -13044,43, 4671,38, -16477,24, -14958,61, 0,00, 0,00, 0,00
216, -21926,52, -17848,49, -9476,29, -17342,40, -13031,38, 4865,17, -16454,26, -14926,81, 0,00, 0,00, 0,00
217, -21930,05, -17858,46, -9384,45, -17354,07, -13041,19, 4945,75, -16477,68, -14916,39, 0,00, 0,00, 0,00
218, -21921,61, -17859,89, -9581,05, -17347,97, -13060,01, 4796,80, -16508,46, -14949,38, 0,00, 0,00, 0,00
219, -21918,70, -17853,99, -9789,93, -17339,03, -13059,65, 4632,60, -16516,42, -14952,58, 0,00, 0,00, 0,00
220, -21927,08, -17853,43, -9728,08, -17342,25, -13045,73, 4665,61, -16511,48, -14935,52, 0,00, 0,00, 0,00
221, -21941,72, -17864,65, -9479,91, -17352,78, -13039,74, 4867,61, -16504,53, -14922,76, 0,00, 0,00, 0,00
222, -21938,93, -17868,36, -9395,53, -17352,55, -13050,83, 4942,95, -16516,06, -14939,48, 0,00, 0,00, 0,00
223, -21931,15, -17867,63, -9586,26, -17361,27, -13067,52, 4800,86, -16531,64, -14971,40, 0,00, 0,00, 0,00
224, -21924,47, -17856,27, -9795,25, -17345,45, -13065,47, 4638,90, -16522,45, -14952,58, -0,14, 0,96, 0,27
225, -21937,05, -17860,52, -9731,59, -17344,97, -13053,78, 4674,35, -16507,37, -14935,08, 0,00, 0,00, 0,00
226, -21948,79, -17866,44, -9492,56, -17345,45, -13044,72, 4863,38, -16486,15, -14931,21, 0,00, 0,00, 0,00
227, -21951,51, -17874,20, -9421,28, -17353,45, -13062,05, 4925,63, -16509,22, -14945,96, 0,00, 0,00, 0,00
228, -21948,61, -17875,38, -9599,18, -17352,49, -13083,48, 4794,69, -16539,42, -14976,07, 0,00, 0,00, 0,00
229, -21941,52, -17867,45, -9804,88, -17345,09, -13088,06, 4632,58, -16556,79, -14992,07, 0,00, 0,00, 0,00
230, -21949,52, -17866,58, -9747,62, -17342,49, -13077,71, 4658,06, -16547,87, -14992,70, 0,00, 0,00, 0,00
231, -21957,68, -17870,04, -9514,74, -17351,84, -13067,37, 4838,33, -16529,92, -14974,57, 0,00, 0,00, 0,00
232, -21954,15, -17869,77, -9433,98, -17359,68, -13075,55, 4907,24, -16539,73, -14958,37, 0,00, 0,00, 0,00
233, -21944,18, -17869,62, -9601,50, -17352,33, -13084,91, 4786,49, -16534,12, -14961,43, 0,00, 0,00, 0,00
234, -21935,62, -17860,41, -9814,11, -17347,43, -13094,57, 4616,95, -16567,27, -15015,05, -0,14, 0,96, 0,27
235, -21945,46, -17862,53, -9766,62, -17348,46, -13081,04, 4636,06, -16565,68, -15028,91, 0,00, 0,00, 0,00
236, -21956,92, -17872,99, -9526,80, -17349,20, -13060,44, 4829,68, -16507,19, -14964,36, 0,00, 0,00, 0,00
237, -21957,50, -17882,67, -9436,15, -17360,58, -13069,42, 4911,08, -16501,04, -14960,94, 0,00, 0,00, 0,00
238, -21954,49, -17886,63, -9610,00, -17375,87, -13091,10, 4785,35, -16537,07, -14986,35, 0,00, 0,00, 0,00
239, -21942,01, -17874,06, -9841,50, -17359,77, -13090,34, 4603,25, -16545,30, -14990,24, 0,00, 0,00, 0,00
240, -21950,60, -17874,35, -9768,79, -17352,20, -13062,22, 4651,26, -16501,87, -14934,59, 0,00, 0,00, 0,00
241, -21964,14, -17884,59, -9520,17, -17365,12, -13054,13, 4851,96, -16487,79, -14912,46, 0,00, 0,00, 0,00
242, -21968,81, -17896,04, -9440,06, -17374,99, -13066,07, 4922,66, -16512,35, -14924,28, 0,00, 0,00, 0,00
243, -21962,13, -17896,79, -9630,96, -17376,40, -13083,53, 4779,27, -16536,71, -14963,24, -0,13, 0,95, 0,27
244, -21948,90, -17882,09, -9845,61, -17366,21, -13080,26, 4610,56, -16528,20, -14977,17, 0,00, 0,00, 0,00
245, -21957,17, -17881,75, -9786,15, -17369,14, -13063,41, 4643,04, -16507,59, -14928,55, 0,00, 0,00, 0,00
246, -21978,07, -17898,54, -9526,13, -17384,56, -13057,44, 4853,86, -16487,58, -14911,61, 0,00, 0,00, 0,00
247, -21981,11, -17904,98, -9425,40, -17374,05, -13075,32, 4944,74, -16511,55, -14925,91, 0,00, 0,00, 0,00
248, -21970,56, -17902,27, -9611,29, -17379,80, -13094,90, 4806,83, -16539,60, -14950,01, 0,00, 0,00, 0,00
249, -21962,18, -17891,65, -9817,00, -17370,23, -13093,96, 4646,91, -16545,86, -14949,18, 0,00, 0,00, 0,00
250, -21968,97, -17888,99, -9767,33, -17367,82, -13082,74, 4667,11, -16542,62, -14953,03, 0,00, 0,00, 0,00
251, -21980,97, -17895,30, -9533,33, -17364,60, -13074,27, 4850,95, -16528,20, -14949,67, 0,00, 0,00, 0,00
252, -21983,10, -17902,81, -9437,06, -17376,47, -13081,67, 4935,18, -16525,25, -14954,50, 0,00, 0,00, 0,00
253, -21971,25, -17899,81, -9601,71, -17380,29, -13095,69, 4814,63, -16533,34, -14985,97, -0,14, 0,96, 0,27
254, -21958,73, -17886,94, -9812,93, -17366,84, -13101,36, 4645,94, -16555,04, -15004,10, 0,00, 0,00, 0,00
255, -21958,93, -17876,77, -9768,23, -17357,98, -13089,47, 4658,19, -16565,12, -14965,03, 0,00, 0,00, 0,00
0, -21972,57, -17883,81, -9526,51, -17361,76, -13075,46, 4844,25, -16553,72, -14950,05, 0,00, 0,00, 0,00
1, -21976,73, -17894,13, -9418,06, -17374,88, -13082,90, 4934,68, -16535,75, -14982,96, 0,00, 0,00, 0,00
2, -21969,98, -17894,83, -9594,20, -17377,72, -13096,49, 4800,66, -16543,80, -14967,13, 0,00, 0,00, 0,00
3, -21955,74, -17878,67, -9800,66, -17364,18, -13092,15, 4636,31, -16545,52, -14946,37, 0,00, 0,00, 0,00
4, -21962,09, -17874,67, -9726,94, -17374,93, -13078,12, 4673,28, -16533,74, -14956,47, 0,00, 0,00, 0,00
5, -21971,54, -17878,24, -9493,28, -17367,10, -13068,84, 4854,26, -16522,32, -14940,40, 0,00, 0,00, 0,00
6, -21975,54, -17886,56, -9397,12, -17366,46, -13075,93, 4939,29, -16516,46, -14935,77, 0,00, 0,00, 0,00
7, -21970,11, -17891,16, -9559,06, -17371,82, -13090,34, 4823,80, -16526,61, -14960,45, -0,13, 0,96, 0,28
8, -21959,52, -17883,05, -9774,53, -17368,00, -13092,29, 4653,54, -16532,82, -14952,36, 0,00, 0,00, 0,00
9, -21969,46, -17884,44, -9728,42, -17364,87, -13080,55, 4671,13, -16524,51, -14950,79, 0,00, 0,00, 0,00
10, -21984,66, -17896,15, -9489,30, -17378,93, -13073,49, 4860,34, -16517,42, -14947,33, 0,00, 0,00, 0,00
11, -21980,75, -17897,44, -9395,02, -17383,55, -13080,62, 4942,57, -16526,19, -14937,25, 0,00, 0,00, 0,00
12, -21976,10, -17899,30, -9573,97, -17384,16, -13098,23, 4811,95, -16545,52, -14948,09, 0,00, 0,00, 0,00
13, -21967,12, -17887,18, -9781,23, -17372,36, -13093,94, 4651,78, -16531,28, -14939,37, 0,00, 0,00, 0,00
14, -21965,21, -17878,69, -9728,86, -17352,73, -13073,69, 4679,52, -16508,64, -14930,83, 0,00, 0,00, 0,00
15, -21974,87, -17883,05, -9480,69, -17358,90, -13062,16, 4880,35, -16503,83, -14919,77, 0,00, 0,00, 0,00
16, -21980,93, -17894,54, -9375,75, -17370,52, -13075,21, 4976,91, -16536,76, -14926,99, 0,00, 0,00, 0,00
17, -21967,12, -17889,49, -9575,80, -17368,04, -13088,04, 4823,37, -16543,02, -14964,29, -0,13, 0,96, 0,27
18, -21955,74, -17877,17, -9771,82, -17356,84, -13080,84, 4668,36, -16519,30, -14970,44, 0,00, 0,00, 0,00
19, -21966,04, -17877,95, -9708,64, -17359,64, -13071,59, 4701,56, -16522,01, -14947,19, 0,00, 0,00, 0,00
20, -21975,88, -17883,12, -9477,12, -17352,64, -13062,90, 4881,06, -16519,75, -14941,25, 0,00, 0,00, 0,00
21, -21978,45, -17890,16, -9385,45, -17359,97, -13075,10, 4957,37, -16528,31, -14967,91, 0,00, 0,00, 0,00
22, -21971,54, -17889,91, -9560,33, -17368,60, -13094,34, 4826,48, -16547,09, -15011,03, 0,00, 0,00, 0,00
23, -21963,05, -17878,47, -9768,27, -17365,81, -13097,36, 4661,52, -16550,08, -15046,39, 0,00, 0,00, 0,00
24, -21970,06, -17876,68, -9707,56, -17366,66, -13079,35, 4693,44, -16536,20, -14989,86, 0,00, 0,00, 0,00
25, -21978,45, -17881,82, -9466,68, -17352,02, -13066,40, 4887,05, -16525,36, -14934,36, 0,00, 0,00, 0,00
26, -21974,47, -17885,73, -9395,98, -17355,32, -13074,94, 4945,75, -16537,83, -14926,90, 0,00, 0,00, 0,00
27, -21971,34, -17890,51, -9564,94, -17364,35, -13091,13, 4820,56, -16558,51, -14942,23, -0,14, 0,96, 0,27
28, -21961,64, -17880,90, -9771,98, -17346,90, -13089,05, 4660,70, -16554,64, -14944,40, 0,00, 0,00, 0,00
29, -21965,97, -17875,31, -9745,16, -17338,92, -13064,86, 4661,03, -16511,37, -14933,94, 0,00, 0,00, 0,00
30, -21978,83, -17883,34, -9491,47, -17347,39, -13048,12, 4865,08, -16486,82, -14918,92, 0,00, 0,00, 0,00
31, -21984,73, -17895,66, -9391,89, -17369,90, -13057,64, 4954,96, -16504,42, -14923,32, 0,00, 0,00, 0,00
32, -21975,03, -17894,52, -9566,41, -17368,13, -13069,89, 4829,52, -16518,86, -14947,86, 0,00, 0,00, 0,00
33, -21967,92, -17886,07, -9778,08, -17358,14, -13072,33, 4668,07, -16531,62, -14959,33, 0,00, 0,00, 0,00
34, -21972,93, -17883,67, -9718,63, -17349,56, -13055,63, 4704,91, -16515,57, -14926,85, 0,00, 0,00, 0,00
35, -21981,98, -17888,57, -9478,79, -17356,53, -13045,42, 4900,31, -16510,54, -14917,26, 0,00, 0,00, 0,00
36, -21983,23, -17894,61, -9391,69, -17370,12, -13054,45, 4976,82, -16505,40, -14948,22, 0,00, 0,00, 0,00
37, -21977,08, -17896,17, -9560,58, -17381,39, -13069,20, 4856,99, -16512,06, -14958,05, -0,15, 0,96, 0,27
38, -21968,10, -17886,04, -9753,00, -17362,28, -13067,54, 4712,55, -16511,99, -14943,84, 0,00, 0,00, 0,00
39, -21969,71, -17880,14, -9704,55, -17349,00, -13055,41, 4732,96, -16505,40, -14923,34, 0,00, 0,00, 0,00
40, -21984,30, -17890,89, -9469,25, -17359,53, -13048,90, 4913,74, -16490,63, -14914,47, 0,00, 0,00, 0,00
41, -21991,50, -17903,68, -9372,51, -17374,64, -13064,91, 4995,53, -16504,44, -14929,87, 0,00, 0,00, 0,00
42, -21984,42, -17903,59, -9551,24, -17377,21, -13086,52, 4858,69, -16526,77, -14959,73, 0,00, 0,00, 0,00
43, -21979,05, -17896,62, -9779,20, -17370,86, -13097,25, 4673,71, -16550,10, -14984,03, 0,00, 0,00, 0,00
44, -21980,17, -17888,68, -9733,65, -17360,82, -13079,35, 4689,08, -16537,34, -14952,56, 0,00, 0,00, 0,00
45, -21988,24, -17893,76, -9498,37, -17374,88, -13068,71, 4870,51, -16516,40, -14935,48, 0,00, 0,00, 0,00
46, -21992,30, -17905,00, -9408,92, -17385,99, -13079,84, 4941,70, -16520,60, -14970,97, 0,00, 0,00, 0,00
47, -21985,04, -17907,46, -9590,80, -17373,03, -13103,87, 4798,70, -16554,91, -15022,88, -0,15, 0,96, 0,26
48, -21976,88, -17899,95, -9805,42, -17370,72, -13112,25, 4630,36, -16572,16, -15031,17, 0,00, 0,00, 0,00
49, -21976,55, -17892,75, -9745,32, -17362,83, -13089,56, 4664,00, -16544,43, -14975,09, 0,00, 0,00, 0,00
50, -21985,38, -17897,82, -9502,64, -17365,99, -13075,30, 4857,50, -16527,37, -14935,97, 0,00, 0,00, 0,00
51, -21987,77, -17905,87, -9406,40, -17368,51, -13085,52, 4943,98, -16538,77, -14949,27, 0,00, 0,00, 0,00
52, -21975,90, -17901,04, -9599,60, -17364,96, -13097,99, 4799,90, -16563,71, -14954,34, 0,00, 0,00, 0,00
53, -21970,42, -17895,21, -9814,36, -17359,35, -13093,81, 4634,05, -16560,88, -14945,16, 0,00, 0,00, 0,00
54, -21982,67, -17899,59, -9754,84, -17359,04, -13075,30, 4669,37, -16509,36, -14929,49, 0,00, 0,00, 0,00
55, -21996,64, -17909,92, -9506,24, -17367,80, -13066,87, 4870,22, -16481,04, -14934,52, 0,00, 0,00, 0,00
56, -22000,33, -17919,48, -9402,51, -17369,74, -13076,69, 4965,95, -16499,68, -14945,40, 0,00, 0,00, 0,00
57, -21987,46, -17915,79, -9575,84, -17373,61, -13094,63, 4843,40, -16546,46, -14963,96, -0,14, 0,95, 0,26
58, -21974,47, -17901,94, -9770,82, -17359,01, -13082,97, 4703,08, -16519,91, -14941,25, 0,00, 0,00, 0,00
59, -21975,38, -17894,92, -9735,32, -17351,35, -13065,71, 4720,64, -16496,97, -14910,89, 0,00, 0,00, 0,00
60, -21983,99, -17897,69, -9508,63, -17366,90, -13055,23, 4901,11, -16482,22, -14904,50, 0,00, 0,00, 0,00
61, -21985,89, -17903,46, -9409,53, -17367,42, -13062,83, 4993,00, -16485,57, -14905,93, 0,00, 0,00, 0,00
62, -21979,83, -17904,28, -9566,95, -17359,46, -13078,47, 4885,51, -16513,60, -14927,19, 0,00, 0,00, 0,00
63, -21971,81, -17897,04, -9772,36, -17356,89, -13085,92, 4730,68, -16528,00, -14945,27, 0,00, 0,00, 0,00
64, -21970,18, -17886,02, -9733,76, -17349,00, -13070,90, 4741,90, -16516,73, -14927,48, 0,00, 0,00, 0,00
65, -21978,25, -17889,96, -9495,27, -17352,91, -13062,54, 4926,86, -16510,09, -14927,86, 0,00, 0,00, 0,00
66, -21977,96, -17894,74, -9405,14, -17359,15, -13072,93, 5001,27, -16520,15, -14953,79, -0,14, 0,96, 0,27
67, -21967,63, -17893,06, -9592,25, -17363,15, -13092,69, 4857,53, -16547,69, -14946,19, 0,00, 0,00, 0,00
68, -21962,64, -17886,25, -9786,87, -17358,34, -13093,96, 4705,02, -16548,54, -14961,39, 0,00, 0,00, 0,00
69, -21968,95, -17884,66, -9724,86, -17363,10, -13088,33, 4731,71, -16540,89, -14968,34, 0,00, 0,00, 0,00
70, -21977,17, -17889,87, -9490,57, -17377,12, -13082,52, 4908,00, -16531,39, -14959,37, 0,00, 0,00, 0,00
71, -21973,37, -17894,43, -9390,41, -17372,98, -13087,01, 4993,07, -16529,76, -14919,23, 0,00, 0,00, 0,00
72, -21956,52, -17885,24, -9592,88, -17372,40, -13105,54, 4833,54, -16551,38, -14941,43, 0,00, 0,00, 0,00
73, -21947,98, -17873,82, -9807,63, -17370,03, -13105,41, 4663,27, -16551,13, -14959,51, 0,00, 0,00, 0,00
74, -21949,50, -17867,67, -9777,59, -17362,61, -13091,73, 4666,57, -16536,27, -14976,21, 0,00, 0,00, 0,00
75, -21965,28, -17877,80, -9533,22, -17376,07, -13080,17, 4861,12, -16510,81, -14945,72, 0,00, 0,00, 0,00
76, -21972,90, -17889,31, -9413,41, -17376,92, -13092,18, 4974,22, -16509,47, -14935,59, -0,14, 0,96, 0,27
77, -21953,88, -17879,63, -9600,12, -17359,30, -13095,71, 4839,22, -16501,00, -14938,94, 0,00, 0,00, 0,00
78, -21948,43, -17873,86, -9788,81, -17354,21, -13087,82, 4703,21, -16471,80, -14940,22, 0,00, 0,00, 0,00
79, -21954,08, -17871,65, -9736,13, -17357,54, -13074,74, 4732,83, -16437,52, -14943,30, 0,00, 0,00, 0,00
80, -21966,76, -17882,69, -9497,64, -17369,07, -13063,61, 4924,96, -16418,18, -14913,46, 0,00, 0,00, 0,00
81, -21964,39, -17888,59, -9402,89, -17374,39, -13068,13, 5010,86, -16425,20, -14924,48, 0,00, 0,00, 0,00
82, -21951,11, -17882,27, -9588,99, -17371,87, -13081,83, 4873,15, -16455,26, -14963,08, 0,00, 0,00, 0,00
83, -21942,19, -17871,87, -9802,78, -17362,88, -13079,12, 4710,56, -16460,99, -14950,39, 0,00, 0,00, 0,00
84, -21942,77, -17863,87, -9752,04, -17351,70, -13057,78, 4737,30, -16440,40, -14923,79, 0,00, 0,00, 0,00
85, -21950,60, -17867,22, -9503,47, -17359,88, -13041,30, 4935,09, -16426,27, -14906,20, 0,00, 0,00, 0,00
86, -21949,72, -17872,25, -9411,42, -17356,58, -13049,15, 5013,47, -16441,09, -14921,44, -0,14, 0,96, 0,27
87, -21940,52, -17871,16, -9584,90, -17356,84, -13065,13, 4882,07, -16470,13, -14952,29, 0,00, 0,00, 0,00
88, -21934,68, -17865,06, -9779,80, -17361,58, -13070,29, 4726,97, -16479,40, -14982,24, 0,00, 0,00, 0,00
89, -21940,63, -17863,40, -9725,71, -17341,13, -13059,01, 4747,58, -16465,95, -14975,49, 0,00, 0,00, 0,00
90, -21948,72, -17865,95, -9493,46, -17349,40, -13049,17, 4926,21, -16441,96, -14948,87, 0,00, 0,00, 0,00
91, -21944,74, -17868,19, -9394,08, -17351,81, -13055,68, 5007,60, -16438,43, -14934,23, 0,00, 0,00, 0,00
92, -21933,45, -17863,71, -9579,04, -17348,84, -13070,58, 4864,32, -16445,72, -14931,90, 0,00, 0,00, 0,00
93, -21929,45, -17859,83, -9784,19, -17344,84, -13076,96, 4703,43, -16461,03, -14932,13, 0,00, 0,00, 0,00
94, -21931,49, -17855,47, -9741,47, -17337,15, -13067,92, 4715,86, -16455,29, -14939,06, 0,00, 0,00, 0,00
95, -21937,59, -17857,84, -9514,65, -17339,63, -13055,70, 4889,44, -16425,40, -14939,95, 0,00, 0,00, 0,00
96, -21943,06, -17869,59, -9402,13, -17351,14, -13064,64, 4989,56, -16430,59, -14926,18, -0,14, 0,96, 0,27
97, -21935,96, -17868,12, -9578,73, -17354,90, -13089,25, 4856,43, -16473,79, -14956,22, 0,00, 0,00, 0,00
98, -21931,82, -17861,52, -9790,09, -17359,86, -13101,50, 4690,92, -16492,32, -14988,77, 0,00, 0,00, 0,00
99, -21939,22, -17859,76, -9742,28, -17339,88, -13080,62, 4715,95, -16455,96, -14946,77, 0,00, 0,00, 0,00
100, -21951,16, -17867,27, -9483,58, -17349,36, -13061,62, 4926,61, -16407,74, -14904,05, 0,00, 0,00, 0,00
101, -21956,54, -17877,71, -9402,01, -17367,66, -13083,19, 4998,70, -16438,99, -14918,76, 0,00, 0,00, 0,00
102, -21942,75, -17871,16, -9588,32, -17365,16, -13101,70, 4860,83, -16471,13, -14940,15, 0,00, 0,00, 0,00
103, -21935,93, -17862,15, -9800,35, -17356,62, -13102,64, 4700,26, -16478,06, -14945,25, 0,00, 0,00, 0,00
104, -21941,88, -17859,69, -9752,60, -17344,66, -13082,68, 4725,83, -16452,16, -14929,71, 0,00, 0,00, 0,00
105, -21955,63, -17871,11, -9508,70, -17356,04, -13069,36, 4917,63, -16437,83, -14923,25, 0,00, 0,00, 0,00
106, -21954,64, -17876,43, -9400,23, -17361,47, -13071,61, 5010,77, -16436,38, -14934,74, -0,14, 0,96, 0,27
107, -21940,40, -17871,34, -9565,85, -17360,96, -13085,29, 4888,84, -16441,96, -14951,06, 0,00, 0,00, 0,00
108, -21931,80, -17862,31, -9778,26, -17356,58, -13086,57, 4725,14, -16443,42, -14945,18, 0,00, 0,00, 0,00
109, -21933,74, -17857,86, -9734,59, -17355,64, -13078,36, 4738,59, -16440,91, -14963,26, 0,00, 0,00, 0,00
110, -21945,81, -17867,31, -9502,58, -17357,85, -13069,49, 4912,40, -16432,26, -14930,99, 0,00, 0,00, 0,00
111, -21946,30, -17873,68, -9386,23, -17368,82, -13078,85, 5008,87, -16445,38, -14921,73, 0,00, 0,00, 0,00
112, -21935,46, -17869,19, -9572,45, -17365,81, -13106,06, 4864,63, -16482,82, -14958,01, 0,00, 0,00, 0,00
113, -21931,13, -17862,98, -9785,75, -17360,67, -13110,57, 4697,24, -16495,97, -14988,30, 0,00, 0,00, 0,00
114, -21931,33, -17855,40, -9744,40, -17351,35, -13092,62, 4712,08, -16469,75, -14968,61, 0,00, 0,00, 0,00
115, -21937,92, -17858,24, -9513,97, -17355,73, -13074,00, 4889,44, -16430,14, -14925,78, 0,00, 0,00, 0,00
116, -21940,87, -17865,44, -9401,97, -17370,19, -13081,38, 4981,06, -16436,44, -14949,47, -0,14, 0,96, 0,27
117, -21935,42, -17866,78, -9574,03, -17373,45, -13100,38, 4850,15, -16454,62, -14993,97, 0,00, 0,00, 0,00
118, -21926,44, -17856,67, -9785,46, -17360,15, -13095,86, 4687,36, -16451,62, -14982,96, 0,00, 0,00, 0,00
119, -21932,71, -17853,03, -9741,43, -17350,16, -13077,58, 4706,74, -16442,72, -14941,72, 0,00, 0,00, 0,00
120, -21942,80, -17858,13, -9508,03, -17345,78, -13066,14, 4889,58, -16432,69, -14922,61, 0,00, 0,00, 0,00
121, -21940,00, -17857,52, -9411,36, -17349,51, -13073,47, 4974,85, -16450,57, -14919,10, 0,00, 0,00, 0,00
122, -21937,63, -17862,66, -9564,24, -17355,01, -13091,59, 4867,49, -16473,77, -14946,97, 0,00, 0,00, 0,00
123, -21928,11, -17854,17, -9779,92, -17344,26, -13091,68, 4704,46, -16465,72, -14970,73, 0,00, 0,00, 0,00
124, -21932,56, -17850,53, -9757,56, -17335,50, -13071,90, 4707,59, -16444,74, -14949,00, 0,00, 0,00, 0,00
125, -21944,07, -17859,00, -9515,12, -17336,50, -13061,02, 4900,87, -16447,17, -14924,01, 0,00, 0,00, 0,00
126, -21944,58, -17865,35, -9414,60, -17347,12, -13064,73, 4987,81, -16438,03, -14935,57, -0,14, 0,96, 0,26
127, -21934,19, -17862,08, -9585,52, -17344,33, -13074,52, 4862,02, -16435,15, -14946,66, 0,00, 0,00, 0,00
128, -21926,35, -17854,66, -9784,07, -17329,51, -13075,81, 4713,38, -16438,25, -14946,41, 0,00, 0,00, 0,00
129, -21930,99, -17851,20, -9755,28, -17325,95, -13068,57, 4716,91, -16444,18, -14937,67, 0,00, 0,00, 0,00
130, -21941,79, -17858,39, -9522,13, -17333,84, -13060,50, 4898,18, -16440,18, -14924,66, 0,00, 0,00, 0,00
131, -21938,86, -17862,48, -9417,55, -17345,09, -13070,00, 4987,70, -16431,04, -14956,80, 0,00, 0,00, 0,00
132, -21930,35, -17862,11, -9584,09, -17348,89, -13088,40, 4862,93, -16444,71, -14991,00, 0,00, 0,00, 0,00
133, -21922,70, -17855,33, -9783,51, -17346,56, -13091,82, 4712,89, -16456,67, -14958,39, 0,00, 0,00, 0,00
134, -21924,98, -17850,77, -9759,58, -17340,01, -13079,73, 4711,48, -16449,07, -14957,79, 0,00, 0,00, 0,00
135, -21935,04, -17856,74, -9534,16, -17339,79, -13069,89, 4884,55, -16439,39, -14946,52, 0,00, 0,00, 0,00
136, -21942,28, -17870,15, -9435,50, -17358,05, -13081,83, 4970,78, -16449,45, -14938,72, -0,14, 0,95, 0,26
137, -21935,42, -17872,14, -9593,14, -17367,42, -13102,73, 4859,02, -16468,81, -14952,04, 0,00, 0,00, 0,00
138, -21926,01, -17861,05, -9811,97, -17348,91, -13110,24, 4689,80, -16488,46, -14974,80, 0,00, 0,00, 0,00
139, -21937,54, -17864,14, -9767,02, -17351,35, -13098,03, 4710,72, -16464,70, -14969,79, 0,00, 0,00, 0,00
140, -21950,04, -17871,38, -9532,82, -17360,33, -13087,82, 4894,25, -16443,98, -14941,31, 0,00, 0,00, 0,00
141, -21954,93, -17882,94, -9424,48, -17372,27, -13094,81, 4990,23, -16459,20, -14940,29, 0,00, 0,00, 0,00
142, -21951,60, -17886,87, -9598,64, -17372,58, -13114,97, 4863,52, -16476,34, -14983,54, 0,00, 0,00, 0,00
143, -21941,97, -17874,22, -9826,12, -17366,08, -13116,27, 4688,90, -16491,25, -14991,40, 0,00, 0,00, 0,00
144, -21951,49, -17875,96, -9758,88, -17351,95, -13094,79, 4734,66, -16462,78, -14961,12, 0,00, 0,00, 0,00
145, -21964,52, -17884,39, -9514,96, -17363,26, -13085,20, 4930,33, -16456,16, -14938,59, -0,14, 0,96, 0,27
146, -21964,54, -17891,16, -9423,36, -17373,65, -13092,96, 5008,33, -16472,95, -14953,70, 0,00, 0,00, 0,00
147, -21953,12, -17888,53, -9604,70, -17373,50, -13100,47, 4870,80, -16463,89, -14977,84, 0,00, 0,00, 0,00
148, -21946,02, -17880,77, -9817,98, -17364,98, -13101,94, 4703,57, -16476,07, -14990,24, 0,00, 0,00, 0,00
149, -21950,71, -17873,44, -9763,44, -17357,45, -13076,57, 4731,89, -16441,41, -14937,49, 0,00, 0,00, 0,00
150, -21962,00, -17880,23, -9536,46, -17353,56, -13062,47, 4908,62, -16419,46, -14903,23, 0,00, 0,00, 0,00
151, -21964,32, -17888,97, -9429,80, -17364,58, -13071,46, 5000,29, -16426,77, -14909,78, 0,00, 0,00, 0,00
152, -21951,80, -17885,08, -9613,49, -17368,45, -13097,50, 4856,45, -16475,94, -14955,64, 0,00, 0,00, 0,00
153, -21938,04, -17870,49, -9835,26, -17361,36, -13100,31, 4681,71, -16484,77, -14992,32, 0,00, 0,00, 0,00
154, -21939,33, -17862,57, -9800,84, -17352,22, -13083,08, 4690,49, -16468,68, -14986,78, 0,00, 0,00, 0,00
155, -21951,96, -17871,25, -9551,77, -17340,84, -13063,83, 4888,97, -16439,13, -14937,80, -0,14, 0,96, 0,27
156, -21952,81, -17877,71, -9429,91, -17354,52, -13075,79, 4997,54, -16442,68, -14929,24, 0,00, 0,00, 0,00
157, -21939,58, -17871,36, -9616,37, -17351,75, -13099,22, 4853,93, -16474,78, -14962,39, 0,00, 0,00, 0,00
158, -21934,32, -17862,26, -9825,42, -17344,82, -13099,93, 4695,97, -16471,98, -14967,73, 0,00, 0,00, 0,00
159, -21939,15, -17856,29, -9788,03, -17332,75, -13084,58, 4711,97, -16453,28, -14956,58, 0,00, 0,00, 0,00
160, -21956,43, -17870,98, -9562,84, -17338,11, -13074,47, 4887,75, -16446,88, -14956,76, 0,00, 0,00, 0,00
161, -21968,41, -17889,49, -9465,54, -17353,63, -13089,20, 4974,56, -16463,45, -14975,27, 0,00, 0,00, 0,00
162, -21961,93, -17890,07, -9649,29, -17358,77, -13103,04, 4843,20, -16483,12, -14985,41, 0,00, 0,00, 0,00
163, -21957,62, -17884,66, -9875,69, -17360,53, -13107,93, 4672,23, -16502,94, -14998,89, 0,00, 0,00, 0,00
164, -21960,59, -17879,70, -9847,19, -17346,99, -13085,47, 4683,14, -16467,96, -14964,72, 0,00, 0,00, 0,00
165, -21967,85, -17881,71, -9608,03, -17345,04, -13065,02, 4880,32, -16432,76, -14918,94, -0,14, 0,96, 0,27
166, -21978,22, -17896,30, -9510,80, -17361,92, -13074,92, 4970,78, -16438,37, -14941,04, 0,00, 0,00, 0,00
167, -21977,20, -17902,45, -9677,66, -17372,00, -13096,09, 4854,15, -16459,49, -14976,41, 0,00, 0,00, 0,00
168, -21970,58, -17894,74, -9885,93, -17369,52, -13103,73, 4700,10, -16480,92, -14987,51, 0,00, 0,00, 0,00
169, -21973,87, -17892,50, -9862,95, -17367,69, -13094,61, 4698,47, -16480,21, -14983,85, 0,00, 0,00, 0,00
170, -21985,64, -17900,60, -9625,15, -17372,98, -13073,49, 4882,31, -16430,99, -14960,83, 0,00, 0,00, 0,00
171, -21989,22, -17908,15, -9506,24, -17389,46, -13081,04, 4984,98, -16446,44, -14959,46, 0,00, 0,00, 0,00
172, -21980,91, -17907,52, -9664,49, -17381,86, -13101,72, 4867,87, -16489,80, -14955,51, 0,00, 0,00, 0,00
173, -21969,89, -17898,29, -9896,66, -17378,21, -13109,03, 4684,84, -16487,52, -14950,34, 0,00, 0,00, 0,00
174, -21966,64, -17885,06, -9869,66, -17371,87, -13092,96, 4685,66, -16465,39, -14944,98, 0,00, 0,00, 0,00
175, -21975,72, -17887,92, -9612,01, -17364,06, -13070,16, 4891,01, -16425,87, -14906,62, -0,14, 0,95, 0,26
176, -21975,72, -17893,51, -9494,01, -17375,71, -13083,73, 4993,27, -16440,45, -14920,77, 0,00, 0,00, 0,00
177, -21964,25, -17890,94, -9668,85, -17381,74, -13108,16, 4860,54, -16488,03, -14981,35, 0,00, 0,00, 0,00
178, -21960,99, -17887,34, -9869,93, -17379,96, -13111,02, 4705,09, -16497,42, -14994,31, 0,00, 0,00, 0,00
179, -21960,72, -17878,33, -9827,93, -17369,67, -13088,71, 4722,66, -16461,66, -14936,64, 0,00, 0,00, 0,00
180, -21969,33, -17880,61, -9593,70, -17374,17, -13076,75, 4906,30, -16440,06, -14915,47, 0,00, 0,00, 0,00
181, -21963,31, -17880,30, -9487,06, -17368,85, -13082,16, 4997,87, -16447,66, -14930,03, 0,00, 0,00, 0,00
182, -21953,08, -17876,59, -9647,19, -17367,48, -13095,86, 4882,54, -16473,21, -14936,22, 0,00, 0,00, 0,00
183, -21945,75, -17868,10, -9853,39, -17371,04, -13102,79, 4727,08, -16490,38, -14950,10, 0,00, 0,00, 0,00
184, -21951,29, -17865,39, -9807,30, -17372,00, -13085,54, 4748,16, -16453,95, -14956,65, 0,00, 0,00, 0,00
185, -21962,58, -17870,98, -9573,45, -17373,07, -13079,82, 4930,08, -16444,87, -14955,37, -0,15, 0,96, 0,27
186, -21963,76, -17877,62, -9470,68, -17379,04, -13090,75, 5020,63, -16460,29, -14941,56, 0,00, 0,00, 0,00
187, -21953,23, -17873,55, -9638,52, -17376,78, -13109,01, 4896,44, -16490,04, -14950,99, 0,00, 0,00, 0,00
188, -21943,31, -17863,09, -9865,55, -17371,24, -13111,73, 4718,32, -16491,05, -14973,59, 0,00, 0,00, 0,00
189, -21948,56, -17860,32, -9855,67, -17362,54, -13102,01, 4705,27, -16491,47, -14955,62, 0,00, 0,00, 0,00
190, -21967,23, -17874,29, -9606,38, -17370,08, -13089,11, 4900,04, -16467,29, -14943,57, 0,00, 0,00, 0,00
191, -21966,24, -17881,22, -9499,98, -17372,63, -13091,95, 4987,55, -16456,05, -14955,57, 0,00, 0,00, 0,00
192, -21962,46, -17885,04, -9654,81, -17377,23, -13101,81, 4872,77, -16467,92, -14942,39, 0,00, 0,00, 0,00
193, -21952,07, -17873,46, -9865,77, -17371,57, -13104,74, 4709,20, -16479,96, -14946,86, 0,00, 0,00, 0,00
194, -21953,23, -17868,43, -9827,08, -17353,00, -13090,72, 4722,10, -16479,25, -14947,33, 0,00, 0,00, 0,00
195, -21965,28, -17876,90, -9601,10, -17361,27, -13075,23, 4897,78, -16464,58, -14900,99, -0,13, 0,95, 0,27
196, -21968,54, -17883,59, -9459,93, -17363,59, -13070,32, 5023,64, -16431,55, -14904,23, 0,00, 0,00, 0,00
197, -21953,41, -17876,63, -9639,88, -17363,97, -13093,00, 4885,29, -16465,61, -14946,54, 0,00, 0,00, 0,00
198, -21947,24, -17869,39, -9868,09, -17364,78, -13097,52, 4705,20, -16482,56, -14973,68, 0,00, 0,00, 0,00
199, -21957,01, -17871,38, -9810,22, -17362,81, -13079,35, 4736,42, -16466,82, -14952,94, 0,00, 0,00, 0,00
200, -21965,75, -17876,46, -9569,94, -17357,16, -13066,29, 4925,18, -16445,43, -14913,62, 0,00, 0,00, 0,00
201, -21961,93, -17877,71, -9454,92, -17360,96, -13073,27, 5024,69, -16446,19, -14927,77, 0,00, 0,00, 0,00
202, -21947,51, -17871,61, -9616,57, -17364,27, -13090,83, 4905,45, -16462,46, -14957,99, 0,00, 0,00, 0,00
203, -21937,92, -17862,84, -9836,49, -17355,59, -13096,83, 4734,64, -16482,49, -14968,56, 0,00, 0,00, 0,00
204, -21943,18, -17857,37, -9797,15, -17356,04, -13080,04, 4749,30, -16463,20, -14948,76, 0,00, 0,00, 0,00
205, -21953,19, -17860,81, -9561,65, -17367,24, -13069,98, 4932,34, -16442,66, -14938,83, -0,14, 0,96, 0,27
206, -21958,49, -17871,05, -9434,78, -17366,32, -13077,96, 5041,19, -16452,98, -14950,68, 0,00, 0,00, 0,00
207, -21950,06, -17871,72, -9613,62, -17365,94, -13094,77, 4905,25, -16476,65, -14977,77, 0,00, 0,00, 0,00
208, -21942,62, -17861,90, -9841,85, -17361,52, -13095,93, 4723,24, -16488,30, -14969,99, 0,00, 0,00, 0,00
209, -21951,22, -17861,95, -9788,39, -17359,82, -13080,04, 4749,48, -16471,54, -14935,52, 0,00, 0,00, 0,00
210, -21962,69, -17870,46, -9543,70, -17370,93, -13070,32, 4941,17, -16450,15, -14922,14, 0,00, 0,00, 0,00
211, -21963,74, -17874,06, -9433,60, -17370,41, -13078,81, 5035,69, -16458,28, -14917,84, 0,00, 0,00, 0,00
212, -21952,72, -17871,27, -9595,56, -17375,89, -13099,96, 4915,17, -16487,81, -14939,91, 0,00, 0,00, 0,00
213, -21940,56, -17858,30, -9810,87, -17366,95, -13105,43, 4749,10, -16492,32, -14943,68, 0,00, 0,00, 0,00
214, -21940,38, -17848,74, -9791,09, -17357,60, -13093,32, 4747,22, -16465,26, -14942,74, -0,14, 0,96, 0,27
215, -21952,45, -17854,73, -9565,03, -17358,07, -13083,97, 4921,23, -16444,31, -14939,37, 0,00, 0,00, 0,00
216, -21955,94, -17860,29, -9443,25, -17368,85, -13092,02, 5026,10, -16447,80, -14919,36, 0,00, 0,00, 0,00
217, -21950,15, -17864,05, -9604,52, -17379,20, -13120,14, 4902,88, -16485,46, -14958,82, 0,00, 0,00, 0,00
218, -21940,40, -17853,54, -9838,08, -17371,02, -13126,31, 4717,60, -16515,73, -14965,52, 0,00, 0,00, 0,00
219, -21939,71, -17845,30, -9804,23, -17354,61, -13097,58, 4728,35, -16469,79, -14936,04, 0,00, 0,00, 0,00
220, -21947,80, -17847,96, -9562,17, -17361,43, -13077,94, 4917,56, -16423,68, -14911,65, 0,00, 0,00, 0,00
221, -21950,28, -17855,33, -9447,37, -17359,73, -13087,44, 5016,92, -16435,62, -14921,93, 0,00, 0,00, 0,00
222, -21937,32, -17851,55, -9620,28, -17361,27, -13106,48, 4885,17, -16478,94, -14967,26, 0,00, 0,00, 0,00
223, -21935,04, -17848,98, -9818,47, -17360,87, -13111,67, 4737,43, -16505,29, -14959,60, 0,00, 0,00, 0,00
224, -21938,44, -17843,78, -9779,92, -17361,07, -13094,50, 4756,65, -16475,11, -14946,99, -0,15, 0,96, 0,26
225, -21943,56, -17846,06, -9559,19, -17353,49, -13076,46, 4931,76, -16441,99, -14926,00, 0,00, 0,00, 0,00
226, -21943,18, -17852,43, -9455,53, -17356,13, -13082,03, 5021,86, -16446,55, -14932,80, 0,00, 0,00, 0,00
227, -21937,37, -17852,81, -9600,66, -17365,05, -13097,76, 4918,81, -16464,54, -14965,19, 0,00, 0,00, 0,00
228, -21934,37, -17849,90, -9803,94, -17361,07, -13104,27, 4763,78, -16477,82, -14959,22, 0,00, 0,00, 0,00
229, -21929,14, -17837,81, -9784,12, -17336,10, -13088,09, 4763,20, -16471,27, -14914,49, 0,00, 0,00, 0,00
230, -21940,67, -17846,12, -9550,34, -17348,17, -13073,13, 4946,58, -16431,30, -14892,50, 0,00, 0,00, 0,00
231, -21947,22, -17860,23, -9443,08, -17367,91, -13086,19, 5038,37, -16434,79, -14916,37, 0,00, 0,00, 0,00
232, -21942,06, -17864,32, -9612,10, -17376,29, -13110,04, 4910,19, -16469,53, -14973,08, 0,00, 0,00, 0,00
233, -21937,10, -17860,74, -9845,21, -17374,77, -13119,45, 4725,81, -16493,35, -15008,01, 0,00, 0,00, 0,00
234, -21943,29, -17859,91, -9832,67, -17368,78, -13107,49, 4717,63, -16484,95, -14987,60, -0,14, 0,96, 0,25
235, -21951,67, -17861,41, -9589,23, -17378,99, -13093,65, 4908,40, -16456,52, -14948,78, 0,00, 0,00, 0,00
236, -21952,23, -17867,92, -9485,83, -17379,17, -13104,36, 4996,15, -16458,55, -14961,39, 0,00, 0,00, 0,00
237, -21946,86, -17869,26, -9661,50, -17379,75, -13121,41, 4863,38, -16477,79, -14973,54, 0,00, 0,00, 0,00
238, -21937,19, -17859,33, -9887,54, -17378,71, -13124,45, 4688,03, -16492,59, -14971,69, 0,00, 0,00, 0,00
239, -21938,26, -17852,85, -9865,52, -17363,86, -13105,88, 4691,14, -16477,08, -14946,81, 0,00, 0,00, 0,00
240, -21959,38, -17869,08, -9603,81, -17374,77, -13091,66, 4904,67, -16444,20, -14928,30, 0,00, 0,00, 0,00
241, -21962,64, -17879,38, -9481,16, -17384,90, -13110,71, 5015,66, -16475,31, -14963,42, 0,00, 0,00, 0,00
242, -21951,67, -17876,28, -9672,49, -17391,47, -13138,20, 4869,84, -16522,34, -15017,71, 0,00, 0,00, 0,00
243, -21940,52, -17864,61, -9901,31, -17378,50, -13131,07, 4698,34, -16503,59, -14990,17, 0,00, 0,00, 0,00
244, -21944,34, -17860,43, -9863,18, -17362,86, -13105,65, 4719,66, -16459,02, -14939,82, -0,13, 0,96, 0,26
245, -21961,01, -17868,36, -9616,41, -17366,01, -13092,71, 4920,11, -16441,03, -14912,12, 0,00, 0,00, 0,00
246, -21958,71, -17873,21, -9482,75, -17370,79, -13100,74, 5043,18, -16452,31, -14916,53, 0,00, 0,00, 0,00
247, -21944,92, -17868,28, -9651,57, -17367,80, -13117,84, 4918,68, -16479,52, -14959,58, 0,00, 0,00, 0,00
248, -21926,10, -17847,73, -9887,18, -17349,22, -13116,92, 4733,27, -16492,01, -14965,48, 0,00, 0,00, 0,00
249, -21936,83, -17847,13, -9841,85, -17354,90, -13097,65, 4755,65, -16469,26, -14923,28, 0,00, 0,00, 0,00
250, -21948,76, -17856,56, -9590,87, -17361,87, -13083,75, 4954,24, -16448,47, -14914,65, 0,00, 0,00, 0,00
251, -21948,83, -17863,94, -9481,32, -17359,84, -13090,95, 5044,30, -16457,14, -14939,17, 0,00, 0,00, 0,00
252, -21941,03, -17864,05, -9637,11, -17356,06, -13103,13, 4925,81, -16472,27, -14948,11, 0,00, 0,00, 0,00
253, -21928,20, -17852,14, -9864,45, -17350,85, -13104,69, 4743,96, -16477,91, -14943,86, 0,00, 0,00, 0,00
254, -21926,41, -17842,46, -9842,14, -17344,84, -13086,88, 4739,60, -16460,94, -14920,12, -0,13, 0,96, 0,26
255, -21941,97, -17853,41, -9603,70, -17352,91, -13076,78, 4920,60, -16445,83, -14916,48, 0,00, 0,00, 0,00
0, -21948,16, -17861,86, -9477,90, -17365,00, -13088,62, 5022,66, -16460,14, -14951,55, 0,00, 0,00, 0,00
1, -21942,91, -17866,02, -9635,14, -17370,14, -13112,20, 4902,63, -16495,79, -14999,18, 0,00, 0,00, 0,00
2, -21937,01, -17859,36, -9863,69, -17366,21, -13120,76, 4724,06, -16512,57, -14978,55, 0,00, 0,00, 0,00
3, -21942,71, -17855,56, -9839,26, -17362,50, -13110,66, 4725,43, -16503,21, -14950,21, 0,00, 0,00, 0,00
4, -21953,14, -17860,74, -9605,53, -17355,66, -13093,23, 4907,15, -16480,43, -14920,66, 0,00, 0,00, 0,00
5, -21961,86, -17872,43, -9476,51, -17366,70, -13097,16, 5020,58, -16480,03, -14914,38, 0,00, 0,00, 0,00
6, -21958,89, -17874,18, -9631,19, -17379,51, -13120,18, 4907,46, -16500,93, -14981,79, 0,00, 0,00, 0,00
7, -21955,83, -17871,54, -9850,91, -17379,13, -13129,55, 4740,09, -16516,24, -15012,71, 0,00, 0,00, 0,00
8, -21958,15, -17868,81, -9841,52, -17372,54, -13115,85, 4730,19, -16497,69, -14982,49, -0,14, 0,96, 0,26
9, -21973,13, -17882,09, -9608,21, -17355,84, -13097,18, 4918,75, -16473,75, -14921,33, 0,00, 0,00, 0,00
10, -21984,10, -17897,35, -9477,77, -17367,33, -13100,87, 5037,88, -16459,76, -14907,47, 0,00, 0,00, 0,00
11, -21981,20, -17901,09, -9647,17, -17377,56, -13123,20, 4911,89, -16480,50, -14955,42, 0,00, 0,00, 0,00
12, -21982,49, -17901,18, -9869,81, -17377,88, -13130,15, 4741,90, -16484,77, -14976,36, 0,00, 0,00, 0,00
13, -21988,73, -17899,75, -9847,06, -17373,88, -13109,86, 4746,15, -16466,15, -14955,53, 0,00, 0,00, 0,00
14, -21998,68, -17905,51, -9600,23, -17369,94, -13091,66, 4944,52, -16449,23, -14929,06, 0,00, 0,00, 0,00
15, -22002,63, -17914,74, -9493,43, -17379,24, -13105,54, 5037,28, -16471,20, -14951,66, 0,00, 0,00, 0,00
16, -21993,20, -17912,46, -9660,85, -17379,42, -13122,31, 4913,74, -16497,35, -14952,89, 0,00, 0,00, 0,00
17, -21993,24, -17910,50, -9879,85, -17379,29, -13125,53, 4746,19, -16502,45, -14954,34, 0,00, 0,00, 0,00
18, -22004,33, -17914,72, -9842,88, -17378,14, -13114,53, 4759,09, -16485,48, -14964,40, -0,15, 0,96, 0,27
19, -22011,33, -17917,81, -9620,28, -17383,76, -13103,62, 4928,85, -16467,78, -14965,97, 0,00, 0,00, 0,00
20, -22015,15, -17928,71, -9488,14, -17394,06, -13105,43, 5040,63, -16463,00, -14982,35, 0,00, 0,00, 0,00
21, -22001,42, -17923,57, -9658,46, -17391,42, -13120,92, 4907,64, -16501,96, -14976,09, 0,00, 0,00, 0,00
22, -21989,67, -17911,26, -9880,10, -17381,86, -13125,88, 4734,48, -16519,84, -14969,99, 0,00, 0,00, 0,00
23, -21988,24, -17903,05, -9857,99, -17368,38, -13110,13, 4732,40, -16496,35, -14967,78, 0,00, 0,00, 0,00
24, -21987,50, -17899,41, -9630,18, -17364,00, -13091,51, 4906,48, -16471,34, -14924,53, 0,00, 0,00, 0,00
25, -21991,72, -17907,66, -9509,84, -17375,35, -13098,79, 5006,01, -16463,42, -14943,73, 0,00, 0,00, 0,00
26, -21982,16, -17905,58, -9670,10, -17376,71, -13120,94, 4886,63, -16498,13, -14971,73, 0,00, 0,00, 0,00
27, -21972,41, -17895,66, -9887,90, -17365,38, -13126,55, 4721,67, -16513,85, -14951,91, 0,00, 0,00, 0,00
28, -21971,61, -17884,52, -9852,29, -17352,33, -13102,64, 4739,64, -16457,57, -14923,66, -0,15, 0,95, 0,27
29, -21981,24, -17888,90, -9613,82, -17358,07, -13092,06, 4929,48, -16426,23, -14915,01, 0,00, 0,00, 0,00
30, -21980,46, -17892,26, -9508,43, -17363,33, -13104,36, 5020,25, -16445,88, -14927,75, 0,00, 0,00, 0,00
31, -21975,70, -17893,38, -9653,61, -17370,30, -13125,97, 4916,80, -16479,70, -14966,33, 0,00, 0,00, 0,00
32, -21970,42, -17887,01, -9879,78, -17370,77, -13132,79, 4743,20, -16485,73, -15003,90, 0,00, 0,00, 0,00
33, -21968,21, -17875,83, -9854,12, -17371,04, -13116,07, 4751,18, -16474,64, -14977,77, 0,00, 0,00, 0,00
34, -21970,24, -17872,32, -9618,76, -17347,84, -13095,31, 4939,27, -16453,90, -14931,46, 0,00, 0,00, 0,00
35, -21972,08, -17878,49, -9502,58, -17357,29, -13103,35, 5039,78, -16467,29, -14950,75, 0,00, 0,00, 0,00
36, -21958,08, -17871,54, -9669,27, -17358,01, -13118,04, 4916,40, -16487,65, -14956,98, 0,00, 0,00, 0,00
37, -21948,05, -17861,59, -9899,68, -17357,00, -13119,49, 4736,69, -16485,77, -14954,59, -0,14, 0,96, 0,27
38, -21954,38, -17862,15, -9874,17, -17363,26, -13110,95, 4738,88, -16488,37, -14964,09, 0,00, 0,00, 0,00
39, -21957,88, -17864,63, -9637,71, -17358,34, -13096,47, 4923,49, -16474,96, -14941,36, 0,00, 0,00, 0,00
40, -21956,83, -17868,03, -9521,75, -17354,34, -13098,41, 5024,69, -16474,04, -14928,64, 0,00, 0,00, 0,00
41, -21953,23, -17872,61, -9680,25, -17368,22, -13118,71, 4905,85, -16506,81, -14966,88, 0,00, 0,00, 0,00
42, -21943,13, -17860,83, -9890,65, -17360,00, -13117,61, 4745,74, -16501,53, -14979,74, 0,00, 0,00, 0,00
43, -21942,80, -17853,34, -9875,94, -17354,03, -13099,82, 4739,98, -16472,32, -14971,60, 0,00, 0,00, 0,00
44, -21951,74, -17858,19, -9638,88, -17355,97, -13079,55, 4925,03, -16446,57, -14938,21, 0,00, 0,00, 0,00
45, -21957,17, -17865,21, -9502,75, -17378,84, -13090,25, 5043,20, -16454,79, -14959,71, 0,00, 0,00, 0,00
46, -21947,87, -17862,93, -9663,24, -17369,92, -13113,01, 4921,88, -16495,56, -15006,89, 0,00, 0,00, 0,00
47, -21938,77, -17854,77, -9886,60, -17360,76, -13113,08, 4751,89, -16502,20, -14990,93, -0,13, 0,96, 0,27
48, -21943,85, -17853,08, -9876,05, -17355,46, -13094,90, 4746,08, -16482,15, -14971,71, 0,00, 0,00, 0,00
49, -21953,26, -17858,15, -9654,92, -17361,65, -13077,09, 4920,42, -16453,54, -14958,82, 0,00, 0,00, 0,00
50, -21947,11, -17856,47, -9537,11, -17354,47, -13074,94, 5027,26, -16441,32, -14920,95, 0,00, 0,00, 0,00
51, -21941,92, -17855,47, -9685,14, -17362,19, -13096,02, 4920,24, -16475,22, -14937,71, 0,00, 0,00, 0,00
52, -21939,71, -17856,70, -9904,04, -17366,68, -13104,98, 4750,77, -16486,15, -14965,50, 0,00, 0,00, 0,00
53, -21938,50, -17849,95, -9892,05, -17356,46, -13083,57, 4742,66, -16462,75, -14957,76, 0,00, 0,00, 0,00
54, -21956,27, -17862,53, -9655,93, -17362,81, -13068,35, 4928,58, -16441,14, -14942,72, 0,00, 0,00, 0,00
55, -21962,98, -17875,52, -9519,74, -17385,32, -13077,25, 5048,25, -16446,70, -14949,63, 0,00, 0,00, 0,00
56, -21949,32, -17870,04, -9672,25, -17374,79, -13090,57, 4941,97, -16458,82, -14962,28, 0,00, 0,00, 0,00
57, -21938,33, -17859,31, -9901,04, -17360,29, -13093,18, 4769,10, -16459,09, -14965,81, -0,13, 0,96, 0,27
58, -21947,54, -17861,77, -9874,24, -17355,57, -13081,04, 4779,00, -16445,32, -14937,00, 0,00, 0,00, 0,00
59, -21956,36, -17867,11, -9648,17, -17357,94, -13074,12, 4954,82, -16433,79, -14928,08, 0,00, 0,00, 0,00
60, -21958,51, -17873,26, -9530,40, -17366,70, -13088,71, 5053,42, -16454,26, -14946,10, 0,00, 0,00, 0,00
61, -21950,75, -17872,66, -9688,50, -17373,36, -13109,12, 4930,75, -16486,36, -14965,52, 0,00, 0,00, 0,00
62, -21936,52, -17856,09, -9911,41, -17358,97, -13109,57, 4755,27, -16482,89, -14967,76, 0,00, 0,00, 0,00
63, -21937,52, -17849,07, -9902,65, -17349,36, -13106,77, 4740,54, -16505,58, -14991,11, 0,00, 0,00, 0,00
64, -21945,19, -17849,63, -9674,08, -17357,83, -13096,42, 4917,58, -16503,70, -14971,35, 0,00, 0,00, 0,00
65, -21950,35, -17857,57, -9537,78, -17365,79, -13095,48, 5036,94, -16461,75, -14949,18, 0,00, 0,00, 0,00
66, -21943,85, -17858,15, -9691,65, -17366,01, -13114,91, 4924,04, -16465,41, -15006,07, 0,00, 0,00, 0,00
67, -21937,59, -17852,36, -9916,04, -17356,62, -13124,25, 4751,89, -16486,62, -15028,06, -0,14, 0,96, 0,27
68, -21938,04, -17843,06, -9894,42, -17349,20, -13101,99, 4759,45, -16468,52, -14954,68, 0,00, 0,00, 0,00
69, -21947,94, -17847,64, -9662,23, -17353,16, -13089,45, 4942,80, -16474,08, -14925,87, 0,00, 0,00, 0,00
70, -21947,45, -17851,71, -9541,83, -17365,83, -13095,17, 5044,50, -16479,16, -14914,51, 0,00, 0,00, 0,00
71, -21939,00, -17852,36, -9688,34, -17347,46, -13105,25, 4938,75, -16494,07, -14923,72, 0,00, 0,00, 0,00
72, -21934,68, -17850,04, -9892,55, -17343,68, -13107,87, 4783,76, -16496,19, -14954,64, 0,00, 0,00, 0,00
73, -21929,74, -17839,02, -9877,33, -17335,05, -13088,20, 4777,84, -16454,33, -14944,87, 0,00, 0,00, 0,00
74, -21933,03, -17839,69, -9654,41, -17339,81, -13073,09, 4947,80, -16430,03, -14931,64, 0,00, 0,00, 0,00
75, -21940,99, -17855,18, -9542,09, -17357,65, -13087,77, 5039,80, -16455,53, -14953,94, 0,00, 0,00, 0,00
76, -21933,59, -17851,53, -9694,53, -17360,60, -13105,43, 4921,47, -16482,96, -14986,75, 0,00, 0,00, 0,00
77, -21932,78, -17849,72, -9894,74, -17358,34, -13106,33, 4767,16, -16476,59, -14994,26, -0,14, 0,96, 0,26
78, -21937,90, -17848,54, -9876,18, -17346,00, -13092,53, 4759,89, -16471,13, -14979,47, 0,00, 0,00, 0,00
79, -21943,51, -17848,02, -9649,94, -17351,41, -13077,87, 4932,16, -16464,14, -14951,73, 0,00, 0,00, 0,00
80, -21943,18, -17853,95, -9522,78, -17365,56, -13080,49, 5040,12, -16461,54, -14931,39, 0,00, 0,00, 0,00
81, -21930,10, -17849,99, -9681,50, -17355,66, -13101,38, 4918,75, -16495,12, -14962,73, 0,00, 0,00, 0,00
82, -21922,30, -17840,98, -9911,84, -17346,47, -13104,78, 4737,83, -16511,26, -14985,53, 0,00, 0,00, 0,00
83, -21930,90, -17840,80, -9881,08, -17339,79, -13083,06, 4745,83, -16466,02, -14969,32, 0,00, 0,00, 0,00
84, -21938,04, -17846,12, -9657,83, -17340,73, -13076,02, 4915,17, -16448,78, -14986,31, 0,00, 0,00, 0,00
85, -21936,98, -17847,33, -9534,99, -17351,90, -13088,56, 5018,44, -16468,34, -14994,00, 0,00, 0,00, 0,00
86, -21929,07, -17845,83, -9684,43, -17357,98, -13111,78, 4908,62, -16505,62, -14998,69, 0,00, 0,00, 0,00
87, -21917,72, -17835,95, -9921,94, -17356,29, -13115,51, 4723,84, -16512,82, -15005,17, -0,15, 0,96, 0,27
88, -21920,15, -17830,14, -9904,21, -17335,88, -13091,28, 4724,96, -16462,48, -14958,46, 0,00, 0,00, 0,00
89, -21936,72, -17841,21, -9658,68, -17339,10, -13077,69, 4924,98, -16437,12, -14906,80, 0,00, 0,00, 0,00
90, -21941,79, -17851,22, -9530,72, -17353,56, -13090,95, 5036,85, -16455,00, -14924,39, 0,00, 0,00, 0,00
91, -21937,50, -17854,39, -9689,91, -17362,66, -13115,60, 4917,29, -16492,28, -14985,93, 0,00, 0,00, 0,00
92, -21930,55, -17845,95, -9913,07, -17356,55, -13122,73, 4748,05, -16512,17, -15001,10, 0,00, 0,00, 0,00
93, -21929,34, -17836,78, -9920,84, -17337,69, -13111,35, 4723,68, -16508,17, -14974,28, 0,00, 0,00, 0,00
94, -21941,10, -17840,54, -9690,11, -17341,96, -13097,70, 4902,77, -16483,00, -14950,43, 0,00, 0,00, 0,00
95, -21943,76, -17848,34, -9549,38, -17352,11, -13099,22, 5029,25, -16468,90, -14946,90, 0,00, 0,00, 0,00
96, -21934,24, -17848,76, -9713,60, -17356,44, -13117,70, 4906,07, -16498,04, -14964,96, 0,00, 0,00, 0,00
97, -21928,40, -17844,31, -9944,98, -17354,23, -13119,45, 4722,16, -16504,17, -14987,49, -0,14, 0,96, 0,26
98, -21933,63, -17843,89, -9912,42, -17352,29, -13097,25, 4732,58, -16473,12, -14986,44, 0,00, 0,00, 0,00
99, -21952,59, -17856,45, -9659,57, -17358,05, -13080,24, 4934,28, -16458,68, -14952,89, 0,00, 0,00, 0,00
100, -21950,84, -17859,00, -9538,83, -17366,77, -13086,23, 5036,43, -16474,42, -14956,13, 0,00, 0,00, 0,00
101, -21934,59, -17852,36, -9692,10, -17360,02, -13092,69, 4921,50, -16481,13, -14961,97, 0,00, 0,00, 0,00
102, -21925,18, -17843,98, -9926,77, -17352,98, -13096,07, 4737,18, -16491,41, -14962,50, 0,00, 0,00, 0,00
103, -21927,53, -17838,68, -9929,83, -17359,39, -13077,42, 4713,27, -16457,34, -14967,53, 0,00, 0,00, 0,00
104, -21939,38, -17846,24, -9686,87, -17352,78, -13058,00, 4904,69, -16431,77, -14931,43, 0,00, 0,00, 0,00
105, -21939,85, -17852,49, -9566,41, -17347,66, -13067,97, 5010,23, -16451,76, -14945,05, 0,00, 0,00, 0,00
106, -21934,91, -17853,84, -9715,88, -17361,98, -13089,11, 4896,51, -16482,87, -14993,15, -0,14, 0,96, 0,27
107, -21922,93, -17842,21, -9944,20, -17359,97, -13094,50, 4718,12, -16498,74, -14974,80, 0,00, 0,00, 0,00
108, -21929,43, -17841,01, -9925,31, -17342,56, -13085,27, 4720,87, -16490,16, -14964,38, 0,00, 0,00, 0,00
109, -21939,02, -17844,07, -9673,86, -17344,01, -13072,39, 4924,29, -16461,30, -14923,88, 0,00, 0,00, 0,00
110, -21936,47, -17844,22, -9547,12, -17350,03, -13080,26, 5037,44, -16462,10, -14914,22, 0,00, 0,00, 0,00
111, -21928,96, -17843,17, -9688,97, -17353,87, -13099,44, 4933,61, -16474,73, -14947,71, 0,00, 0,00, 0,00
112, -21920,38, -17834,66, -9916,82, -17349,74, -13108,09, 4758,22, -16487,79, -14969,68, 0,00, 0,00, 0,00
113, -21921,76, -17826,68, -9899,18, -17345,20, -13093,34, 4757,99, -16469,64, -14944,82, 0,00, 0,00, 0,00
114, -21928,49, -17829,79, -9679,40, -17340,04, -13084,73, 4926,01, -16457,63, -14952,47, 0,00, 0,00, 0,00
115, -21939,13, -17842,75, -9540,35, -17356,08, -13094,90, 5044,97, -16467,78, -14964,87, 0,00, 0,00, 0,00
116, -21935,15, -17845,23, -9679,62, -17362,41, -13114,75, 4942,95, -16491,85, -14965,57, -0,14, 0,96, 0,27
117, -21922,37, -17833,56, -9891,81, -17355,93, -13121,48, 4780,39, -16507,41, -14953,18, 0,00, 0,00, 0,00
118, -21924,29, -17829,61, -9871,92, -17350,23, -13110,17, 4780,12, -16493,53, -14950,03, 0,00, 0,00, 0,00
119, -21935,02, -17835,48, -9653,67, -17357,07, -13096,42, 4947,36, -16470,53, -14918,65, 0,00, 0,00, 0,00
120, -21940,63, -17846,01, -9527,83, -17373,54, -13104,22, 5053,22, -16486,98, -14908,37, 0,00, 0,00, 0,00
121, -21936,31, -17847,78, -9681,34, -17379,98, -13117,41, 4935,40, -16495,79, -14956,36, 0,00, 0,00, 0,00
122, -21932,27, -17841,88, -9899,01, -17353,29, -13117,28, 4768,16, -16508,30, -14969,48, 0,00, 0,00, 0,00
123, -21940,40, -17840,80, -9877,21, -17348,91, -13109,54, 4771,47, -16517,40, -14961,99, 0,00, 0,00, 0,00
124, -21950,24, -17844,16, -9648,87, -17354,36, -13096,42, 4947,76, -16496,53, -14963,00, 0,00, 0,00, 0,00
125, -21951,45, -17850,15, -9510,58, -17363,75, -13092,78, 5068,24, -16458,88, -14949,61, 0,00, 0,00, 0,00
126, -21942,19, -17848,40, -9673,10, -17366,57, -13108,09, 4943,94, -16473,21, -14958,21, -0,13, 0,95, 0,27
127, -21932,07, -17838,90, -9904,04, -17360,29, -13104,09, 4763,56, -16470,06, -14957,76, 0,00, 0,00, 0,00
128, -21937,03, -17835,28, -9888,95, -17353,83, -13085,63, 4757,10, -16451,08, -14961,56, 0,00, 0,00, 0,00
129, -21949,77, -17841,21, -9652,89, -17351,68, -13071,99, 4942,66, -16448,78, -14947,33, 0,00, 0,00, 0,00
130, -21947,40, -17845,52, -9531,25, -17359,08, -13073,20, 5050,85, -16460,56, -14940,62, 0,00, 0,00, 0,00
131, -21942,26, -17848,25, -9659,71, -17364,69, -13084,96, 4962,47, -16475,29, -14943,44, 0,00, 0,00, 0,00
132, -21931,82, -17839,13, -9884,92, -17357,96, -13091,80, 4789,82, -16486,49, -14955,40, 0,00, 0,00, 0,00
133, -21929,94, -17825,78, -9883,40, -17342,85, -13076,82, 4772,63, -16459,24, -14938,41, 0,00, 0,00, 0,00
134, -21943,33, -17833,21, -9651,80, -17353,27, -13069,94, 4953,88, -16438,01, -14912,39, 0,00, 0,00, 0,00
135, -21950,71, -17843,44, -9524,15, -17377,70, -13089,83, 5060,23, -16459,09, -14955,22, 0,00, 0,00, 0,00
136, -21937,32, -17840,07, -9657,43, -17365,72, -13113,90, 4963,47, -16485,80, -14983,13, -0,13, 0,96, 0,27
137, -21921,00, -17824,82, -9884,95, -17358,05, -13125,55, 4788,70, -16516,42, -14962,50, 0,00, 0,00, 0,00
138, -21924,85, -17820,64, -9864,79, -17346,54, -13113,86, 4790,22, -16502,58, -14925,62, 0,00, 0,00, 0,00
139, -21934,10, -17824,53, -9647,26, -17347,86, -13098,95, 4955,63, -16450,91, -14915,36, 0,00, 0,00, 0,00
140, -21937,92, -17833,43, -9514,60, -17356,62, -13106,71, 5068,01, -16457,48, -14933,56, 0,00, 0,00, 0,00
141, -21929,61, -17835,24, -9653,67, -17363,42, -13129,33, 4963,29, -16496,17, -14957,05, 0,00, 0,00, 0,00
142, -21917,76, -17825,78, -9863,31, -17352,53, -13129,59, 4803,70, -16488,23, -14940,98, 0,00, 0,00, 0,00
143, -21917,63, -17818,16, -9867,40, -17342,72, -13118,31, 4779,25, -16490,69, -14944,64, 0,00, 0,00, 0,00
144, -21929,79, -17823,19, -9648,40, -17343,41, -13103,06, 4947,87, -16484,41, -14934,41, 0,00, 0,00, 0,00
145, -21930,28, -17827,91, -9503,04, -17352,49, -13098,86, 5078,18, -16450,59, -14935,77, 0,00, 0,00, 0,00
146, -21924,36, -17832,91, -9651,62, -17360,44, -13116,58, 4967,47, -16472,05, -14949,05, -0,14, 0,96, 0,26
147, -21916,98, -17828,13, -9883,54, -17355,95, -13122,46, 4786,92, -16497,40, -14964,98, 0,00, 0,00, 0,00
148, -21924,63, -17828,69, -9870,19, -17353,94, -13109,39, 4783,27, -16488,39, -14954,90, 0,00, 0,00, 0,00
149, -21932,29, -17831,19, -9648,51, -17349,02, -13091,24, 4955,56, -16460,25, -14922,43, 0,00, 0,00, 0,00
150, -21936,61, -17840,13, -9515,88, -17358,79, -13090,68, 5071,36, -16452,98, -14933,00, 0,00, 0,00, 0,00
151, -21931,40, -17842,48, -9650,90, -17365,23, -13105,70, 4975,92, -16478,64, -14958,19, 0,00, 0,00, 0,00
152, -21925,92, -17835,02, -9878,55, -17357,67, -13113,30, 4800,33, -16502,87, -14976,21, 0,00, 0,00, 0,00
153, -21929,34, -17828,35, -9869,66, -17353,85, -13096,69, 4791,66, -16478,58, -14972,29, 0,00, 0,00, 0,00
154, -21935,71, -17828,31, -9633,91, -17349,24, -13078,72, 4979,43, -16443,75, -14910,00, 0,00, 0,00, 0,00
155, -21937,37, -17834,08, -9496,85, -17357,43, -13086,70, 5101,70, -16451,38, -14895,43, 0,00, 0,00, 0,00
156, -21926,01, -17831,75, -9648,60, -17360,09, -13111,58, 4986,92, -16483,16, -14926,76, -0,14, 0,96, 0,27
157, -21915,17, -17823,57, -9885,77, -17350,94, -13124,21, 4797,42, -16494,00, -14967,26, 0,00, 0,00, 0,00
158, -21916,94, -17816,71, -9872,52, -17343,93, -13118,37, 4787,99, -16501,91, -14961,45, 0,00, 0,00, 0,00
159, -21922,61, -17816,33, -9633,00, -17344,21, -13101,18, 4973,20, -16470,91, -14927,50, 0,00, 0,00, 0,00
160, -21919,80, -17820,58, -9513,62, -17350,36, -13107,33, 5070,18, -16463,20, -14941,47, 0,00, 0,00, 0,00
161, -21915,64, -17823,59, -9651,50, -17356,55, -13127,29, 4963,50, -16485,01, -14982,08, 0,00, 0,00, 0,00
162, -21907,30, -17815,81, -9872,30, -17345,91, -13130,58, 4792,10, -16501,82, -14969,43, 0,00, 0,00, 0,00
163, -21906,72, -17809,38, -9878,15, -17337,00, -13118,28, 4768,70, -16499,07, -14957,09, 0,00, 0,00, 0,00
164, -21915,46, -17814,03, -9662,03, -17341,38, -13104,85, 4931,89, -16484,50, -14966,95, 0,00, 0,00, 0,00
165, -21920,67, -17823,86, -9517,98, -17357,16, -13108,31, 5053,64, -16485,13, -14971,80, 0,00, 0,00, 0,00
166, -21912,00, -17824,42, -9664,20, -17359,33, -13123,29, 4948,01, -16504,06, -14959,06, -0,14, 0,96, 0,27
167, -21905,47, -17818,30, -9881,35, -17346,88, -13119,83, 4787,39, -16501,04, -14933,40, 0,00, 0,00, 0,00
168, -21908,15, -17812,02, -9872,63, -17338,18, -13098,99, 4783,41, -16466,11, -14918,63, 0,00, 0,00, 0,00
169, -21916,38, -17814,88, -9666,03, -17340,48, -13082,88, 4943,65, -16451,87, -14924,71, 0,00, 0,00, 0,00
170, -21925,81, -17827,59, -9524,21, -17351,93, -13083,95, 5069,17, -16459,91, -14938,21, 0,00, 0,00, 0,00
171, -21923,28, -17831,82, -9652,31, -17361,56, -13101,97, 4979,48, -16485,39, -14967,49, 0,00, 0,00, 0,00
172, -21917,94, -17825,54, -9865,43, -17358,52, -13110,46, 4820,33, -16505,00, -14973,52, 0,00, 0,00, 0,00
173, -21919,82, -17819,19, -9850,23, -17349,04, -13095,31, 4823,75, -16491,36, -14927,19, 0,00, 0,00, 0,00
174, -21930,90, -17824,49, -9634,58, -17352,22, -13079,70, 4993,29, -16464,58, -14907,14, 0,00, 0,00, 0,00
175, -21936,45, -17833,94, -9511,27, -17361,67, -13083,84, 5100,09, -16465,72, -14921,17, 0,00, 0,00, 0,00
176, -21931,31, -17839,82, -9648,55, -17368,09, -13102,08, 4997,16, -16481,93, -14954,75, -0,14, 0,97, 0,27
177, -21920,85, -17831,44, -9874,53, -17357,96, -13108,67, 4820,67, -16488,03, -14962,95, 0,00, 0,00, 0,00
178, -21923,39, -17826,39, -9868,09, -17346,47, -13096,11, 4810,21, -16471,83, -14924,42, 0,00, 0,00, 0,00
179, -21936,09, -17834,21, -9646,43, -17350,50, -13090,01, 4978,27, -16460,05, -14910,56, 0,00, 0,00, 0,00
180, -21945,46, -17847,35, -9511,09, -17365,67, -13105,83, 5088,33, -16473,77, -14936,49, 0,00, 0,00, 0,00
181, -21940,31, -17850,42, -9666,48, -17369,88, -13130,06, 4966,31, -16505,11, -14968,49, 0,00, 0,00, 0,00
182, -21939,53, -17850,86, -9892,01, -17368,06, -13143,29, 4790,43, -16529,23, -14956,11, 0,00, 0,00, 0,00
183, -21939,55, -17845,28, -9902,60, -17360,20, -13127,54, 4760,09, -16506,88, -14952,89, 0,00, 0,00, 0,00
184, -21950,80, -17850,75, -9662,95, -17362,95, -13105,48, 4946,13, -16458,62, -14934,00, 0,00, 0,00, 0,00
185, -21956,95, -17862,15, -9527,41, -17375,24, -13115,60, 5061,93, -16466,15, -14938,50, -0,14, 0,96, 0,26
186, -21948,65, -17862,42, -9668,09, -17376,71, -13131,25, 4959,20, -16484,54, -14957,25, 0,00, 0,00, 0,00
187, -21936,38, -17851,24, -9890,83, -17366,05, -13132,07, 4788,50, -16480,77, -14991,02, 0,00, 0,00, 0,00
188, -21939,40, -17844,07, -9881,79, -17358,68, -13116,36, 4780,61, -16463,15, -14975,87, 0,00, 0,00, 0,00
189, -21948,16, -17847,96, -9650,05, -17357,76, -13098,95, 4964,86, -16447,46, -14913,78, 0,00, 0,00, 0,00
190, -21953,37, -17856,45, -9499,02, -17363,33, -13100,51, 5103,33, -16449,70, -14881,03, 0,00, 0,00, 0,00
191, -21947,31, -17857,72, -9647,26, -17367,77, -13124,03, 4995,08, -16490,20, -14924,77, 0,00, 0,00, 0,00
192, -21935,40, -17845,23, -9891,54, -17360,89, -13131,43, 4799,72, -16518,14, -14958,05, 0,00, 0,00, 0,00
193, -21929,05, -17829,67, -9886,04, -17349,80, -13108,96, 4786,72, -16487,96, -14934,41, 0,00, 0,00, 0,00
194, -21939,96, -17836,36, -9637,98, -17356,73, -13090,19, 4984,48, -16448,63, -14905,53, 0,00, 0,00, 0,00
195, -21943,00, -17844,89, -9501,15, -17368,06, -13099,40, 5102,10, -16457,70, -14918,60, -0,14, 0,96, 0,26
196, -21931,31, -17843,26, -9653,61, -17369,79, -13120,96, 4984,95, -16493,73, -14955,33, 0,00, 0,00, 0,00
197, -21923,91, -17838,23, -9888,01, -17364,44, -13131,40, 4800,66, -16517,18, -14983,51, 0,00, 0,00, 0,00
198, -21929,79, -17836,89, -9870,96, -17361,29, -13117,10, 4796,53, -16495,97, -14979,89, 0,00, 0,00, 0,00
199, -21940,90, -17843,11, -9621,91, -17363,04, -13099,51, 4989,42, -16463,20, -14942,68, 0,00, 0,00, 0,00
200, -21939,94, -17846,06, -9476,80, -17367,37, -13102,77, 5110,50, -16456,61, -14929,89, 0,00, 0,00, 0,00
201, -21925,29, -17839,06, -9640,22, -17366,79, -13124,63, 4979,28, -16495,95, -14968,81, 0,00, 0,00, 0,00
202, -21917,23, -17830,05, -9862,30, -17359,17, -13127,98, 4804,62, -16504,39, -14967,78, 0,00, 0,00, 0,00
203, -21924,94, -17830,75, -9854,10, -17355,75, -13117,39, 4792,62, -16491,16, -14941,36, 0,00, 0,00, 0,00
204, -21940,61, -17840,76, -9637,83, -17362,32, -13113,46, 4952,99, -16501,46, -14930,92, 0,00, 0,00, 0,00
205, -21941,10, -17847,89, -9504,45, -17366,81, -13114,57, 5065,04, -16494,63, -14927,61, -0,15, 0,96, 0,26
206, -21935,15, -17849,70, -9651,68, -17371,57, -13131,02, 4953,10, -16501,15, -14963,29, 0,00, 0,00, 0,00
207, -21924,87, -17838,86, -9884,97, -17358,01, -13129,37, 4772,25, -16492,28, -14950,46, 0,00, 0,00, 0,00
208, -21930,35, -17835,02, -9873,55, -17347,08, -13106,88, 4769,06, -16450,91, -14934,90, 0,00, 0,00, 0,00
209, -21941,34, -17840,31, -9647,88, -17347,34, -13093,70, 4945,79, -16445,65, -14936,42, 0,00, 0,00, 0,00
210, -21950,89, -17855,62, -9504,65, -17360,51, -13099,89, 5071,03, -16462,66, -14922,45, 0,00, 0,00, 0,00
211, -21947,33, -17861,55, -9632,42, -17370,26, -13119,51, 4980,24, -16482,85, -14940,82, 0,00, 0,00, 0,00
212, -21938,17, -17853,21, -9850,12, -17365,05, -13128,30, 4818,54, -16495,38, -14957,85, 0,00, 0,00, 0,00
213, -21936,81, -17843,60, -9863,67, -17349,22, -13111,58, 4794,85, -16484,50, -14941,58, 0,00, 0,00, 0,00
214, -21952,97, -17851,38, -9634,29, -17349,00, -13094,46, 4975,57, -16453,37, -14918,94, 0,00, 0,00, 0,00
215, -21960,03, -17861,59, -9494,51, -17358,56, -13103,82, 5097,63, -16469,10, -14919,57, -0,15, 0,96, 0,26
216, -21954,93, -17862,69, -9642,41, -17362,63, -13122,08, 4990,90, -16493,06, -14949,20, 0,00, 0,00, 0,00
217, -21948,61, -17856,99, -9882,58, -17356,20, -13126,49, 4805,40, -16497,98, -14987,31, 0,00, 0,00, 0,00
218, -21951,18, -17853,99, -9877,12, -17348,57, -13107,55, 4793,76, -16483,99, -14967,44, 0,00, 0,00, 0,00
219, -21962,31, -17860,03, -9641,31, -17353,58, -13093,03, 4977,87, -16483,05, -14939,73, 0,00, 0,00, 0,00
220, -21962,78, -17862,60, -9503,76, -17356,29, -13092,67, 5098,48, -16479,34, -14916,86, 0,00, 0,00, 0,00
221, -21960,12, -17868,74, -9625,20, -17364,13, -13107,38, 5010,97, -16470,04, -14940,60, 0,00, 0,00, 0,00
222, -21949,64, -17861,59, -9867,60, -17354,05, -13114,82, 4819,91, -16479,87, -14961,23, 0,00, 0,00, 0,00
223, -21952,25, -17854,62, -9864,45, -17338,90, -13094,57, 4808,55, -16457,07, -14920,37, 0,00, 0,00, 0,00
224, -21963,31, -17858,64, -9651,64, -17339,75, -13084,02, 4970,31, -16437,32, -14919,45, 0,00, 0,00, 0,00
225, -21970,56, -17870,98, -9526,54, -17352,64, -13093,83, 5074,32, -16454,39, -14917,71, -0,14, 0,96, 0,27
226, -21967,25, -17876,88, -9668,89, -17354,61, -13107,67, 4967,41, -16478,80, -14919,95, 0,00, 0,00, 0,00
227, -21965,80, -17875,11, -9897,08, -17349,13, -13111,35, 4794,31, -16487,32, -14925,82, 0,00, 0,00, 0,00
228, -21978,60, -17876,95, -9889,39, -17347,48, -13101,43, 4788,03, -16478,76, -14924,55, 0,00, 0,00, 0,00
229, -21995,97, -17889,87, -9648,93, -17352,33, -13087,24, 4978,00, -16448,63, -14919,88, 0,00, 0,00, 0,00
230, -22003,28, -17900,62, -9510,91, -17361,43, -13099,71, 5100,02, -16462,71, -14923,45, 0,00, 0,00, 0,00
231, -22002,43, -17907,95, -9661,00, -17365,70, -13118,17, 4991,50, -16475,02, -14935,37, 0,00, 0,00, 0,00
232, -21996,98, -17904,39, -9887,56, -17360,58, -13120,94, 4819,46, -16471,13, -14953,79, 0,00, 0,00, 0,00
233, -21997,60, -17897,31, -9905,60, -17353,00, -13111,22, 4791,77, -16472,95, -14950,97, 0,00, 0,00, 0,00
234, -22010,75, -17902,67, -9678,86, -17359,37, -13096,80, 4973,42, -16455,44, -14930,21, 0,00, 0,00, 0,00
235, -22013,74, -17908,87, -9542,36, -17365,27, -13099,22, 5093,94, -16458,30, -14926,76, -0,14, 0,95, 0,27
236, -22011,39, -17913,09, -9682,37, -17375,78, -13124,41, 4993,20, -16494,96, -14968,63, 0,00, 0,00, 0,00
237, -22002,83, -17905,24, -9912,44, -17370,50, -13131,00, 4818,66, -16507,25, -14993,35, 0,00, 0,00, 0,00
238, -22001,13, -17896,95, -9904,50, -17355,86, -13106,86, 4814,32, -16462,86, -14948,42, 0,00, 0,00, 0,00
239, -22009,83, -17900,04, -9681,75, -17360,46, -13095,84, 4989,27, -16450,08, -14944,29, 0,00, 0,00, 0,00
240, -22012,02, -17906,70, -9542,16, -17375,78, -13106,33, 5110,61, -16455,38, -14957,32, 0,00, 0,00, 0,00
241, -22001,58, -17902,25, -9691,76, -17374,50, -13125,10, 4997,72, -16482,18, -14958,73, 0,00, 0,00, 0,00
242, -21989,51, -17889,02, -9918,36, -17365,54, -13128,32, 4821,07, -16494,78, -14965,32, 0,00, 0,00, 0,00
243, -21986,76, -17880,14, -9929,07, -17356,40, -13116,38, 4787,16, -16487,50, -14959,13, 0,00, 0,00, 0,00
244, -21995,66, -17883,61, -9695,90, -17356,22, -13099,84, 4966,07, -16474,11, -14918,34, 0,00, 0,00, 0,00
245, -22001,89, -17894,85, -9549,94, -17366,81, -13102,88, 5091,17, -16466,91, -14916,30, -0,15, 0,95, 0,26
246, -21994,34, -17896,24, -9692,74, -17371,82, -13124,36, 4979,05, -16491,72, -14967,73, 0,00, 0,00, 0,00
247, -21982,27, -17885,62, -9924,55, -17364,31, -13128,16, 4795,48, -16502,72, -14969,39, 0,00, 0,00, 0,00
248, -21978,36, -17875,09, -9932,65, -17351,86, -13105,70, 4769,50, -16474,87, -14921,35, 0,00, 0,00, 0,00
249, -21990,09, -17879,83, -9692,92, -17357,27, -13087,33, 4955,05, -16447,84, -14894,46, 0,00, 0,00, 0,00
250, -21990,45, -17886,49, -9534,40, -17366,10, -13090,21, 5093,02, -16446,53, -14899,47, 0,00, 0,00, 0,00
251, -21977,11, -17884,35, -9674,37, -17364,60, -13105,88, 4989,56, -16452,89, -14924,04, 0,00, 0,00, 0,00
252, -21963,09, -17870,46, -9906,38, -17355,26, -13115,98, 4810,36, -16479,07, -14939,84, 0,00, 0,00, 0,00
253, -21962,35, -17862,78, -9910,96, -17350,36, -13108,38, 4789,33, -16483,90, -14942,79, 0,00, 0,00, 0,00
254, -21968,17, -17865,23, -9684,88, -17353,31, -13091,13, 4964,88, -16443,64, -14931,17, 0,00, 0,00, 0,00
255, -21969,91, -17871,78, -9554,95, -17365,43, -13099,02, 5078,29, -16446,84, -14937,76, -0,15, 0,96, 0,24
0, -21968,57, -17877,68, -9688,41, -17377,90, -13122,66, 4981,38, -16482,29, -14970,84, 0,00, 0,00, 0,00
1, -21950,89, -17863,16, -9925,56, -17366,43, -13128,79, 4799,34, -16501,82, -14983,83, 0,00, 0,00, 0,00
2, -21945,90, -17852,27, -9922,81, -17356,04, -13105,63, 4786,27, -16459,76, -14964,11, 0,00, 0,00, 0,00
3, -21957,37, -17856,99, -9675,98, -17356,71, -13087,30, 4982,23, -16421,36, -14925,29, 0,00, 0,00, 0,00
4, -21963,65, -17868,03, -9522,96, -17368,42, -13096,69, 5116,07, -16438,61, -14923,12, 0,00, 0,00, 0,00
5, -21953,08, -17865,46, -9671,71, -17366,90, -13117,28, 5002,01, -16473,68, -14952,74, 0,00, 0,00, 0,00
6, -21937,25, -17851,22, -9916,11, -17351,53, -13120,38, 4810,52, -16494,56, -14944,35, 0,00, 0,00, 0,00
7, -21940,74, -17847,42, -9909,96, -17345,67, -13102,55, 4797,29, -16467,24, -14941,51, 0,00, 0,00, 0,00
8, -21952,23, -17855,91, -9695,23, -17353,65, -13096,13, 4954,44, -16445,79, -14969,32, -0,15, 0,96, 0,25
9, -21957,68, -17865,46, -9553,78, -17364,00, -13105,70, 5068,44, -16459,98, -14996,50, 0,00, 0,00, 0,00
10, -21944,58, -17859,54, -9697,17, -17362,30, -13126,33, 4958,09, -16502,56, -14980,34, 0,00, 0,00, 0,00
11, -21936,07, -17849,57, -9925,16, -17349,98, -13128,52, 4782,58, -16524,40, -14951,28, 0,00, 0,00, 0,00
12, -21940,74, -17843,11, -9916,93, -17339,50, -13108,38, 4775,54, -16496,86, -14922,23, 0,00, 0,00, 0,00
13, -21949,21, -17847,06, -9701,30, -17340,19, -13089,23, 4939,13, -16448,85, -14909,75, 0,00, 0,00, 0,00
14, -21956,59, -17857,61, -9557,18, -17347,66, -13092,40, 5062,92, -16446,12, -14917,20, 0,00, 0,00, 0,00
15, -21950,42, -17860,12, -9668,49, -17350,56, -13107,20, 4988,80, -16458,86, -14924,80, 0,00, 0,00, 0,00
16, -21939,38, -17849,77, -9911,57, -17343,68, -13121,52, 4800,86, -16479,27, -14957,94, 0,00, 0,00, 0,00
17, -21940,16, -17843,87, -9937,34, -17333,64, -13111,67, 4760,90, -16485,42, -14951,86, 0,00, 0,00, 0,00
18, -21955,22, -17855,27, -9692,30, -17337,78, -13086,03, 4954,64, -16432,04, -14914,58, -0,15, 0,95, 0,25
19, -21957,84, -17863,09, -9538,29, -17348,24, -13093,29, 5088,26, -16439,28, -14909,82, 0,00, 0,00, 0,00
20, -21944,61, -17856,12, -9668,31, -17347,84, -13112,67, 4993,89, -16464,63, -14939,35, 0,00, 0,00, 0,00
21, -21938,33, -17850,59, -9899,12, -17346,12, -13121,05, 4817,16, -16469,55, -14961,41, 0,00, 0,00, 0,00
22, -21942,62, -17847,96, -9909,60, -17343,32, -13111,40, 4793,20, -16465,23, -14956,76, 0,00, 0,00, 0,00
23, -21952,79, -17852,09, -9684,27, -17350,12, -13100,04, 4969,55, -16451,35, -14940,73, 0,00, 0,00, 0,00
24, -21953,32, -17854,39, -9540,26, -17361,34, -13104,25, 5097,74, -16455,40, -14945,63, 0,00, 0,00, 0,00
25, -21943,80, -17850,42, -9670,62, -17366,59, -13121,99, 5006,37, -16479,85, -14970,44, 0,00, 0,00, 0,00
26, -21936,29, -17844,36, -9912,08, -17361,22, -13131,94, 4821,92, -16502,45, -14980,21, 0,00, 0,00, 0,00
27, -21946,15, -17847,73, -9915,64, -17361,81, -13121,75, 4806,47, -16483,34, -14968,23, 0,00, 0,00, 0,00
28, -21959,27, -17856,92, -9688,81, -17372,98, -13107,08, 4980,50, -16451,71, -14950,66, -0,15, 0,95, 0,25
29, -21963,65, -17867,45, -9541,18, -17390,19, -13118,62, 5105,16, -16466,62, -14956,80, 0,00, 0,00, 0,00
30, -21950,48, -17860,52, -9669,36, -17389,97, -13135,16, 5012,58, -16498,65, -14936,31, 0,00, 0,00, 0,00
31, -21941,32, -17851,09, -9899,25, -17385,07, -13143,54, 4831,37, -16508,26, -14961,32, 0,00, 0,00, 0,00
32, -21943,24, -17845,92, -9910,43, -17374,88, -13129,75, 4801,06, -16488,37, -14966,68, 0,00, 0,00, 0,00
33, -21948,76, -17845,86, -9704,01, -17376,63, -13115,49, 4953,35, -16467,20, -14950,43, 0,00, 0,00, 0,00
34, -21950,46, -17853,32, -9576,18, -17388,65, -13123,58, 5057,17, -16503,90, -14937,58, 0,00, 0,00, 0,00
35, -21941,05, -17851,60, -9705,40, -17385,43, -13129,88, 4959,61, -16507,77, -14918,45, 0,00, 0,00, 0,00
36, -21928,18, -17837,72, -9937,05, -17371,31, -13121,23, 4779,12, -16453,70, -14917,33, 0,00, 0,00, 0,00
37, -21941,03, -17841,47, -9929,90, -17372,42, -13111,98, 4768,05, -16448,38, -14919,65, 0,00, 0,00, 0,00
38, -21955,98, -17848,65, -9700,23, -17373,38, -13101,32, 4942,95, -16441,05, -14907,94, -0,16, 0,94, 0,26
39, -21957,32, -17855,36, -9554,74, -17382,19, -13110,46, 5066,56, -16457,83, -14925,04, 0,00, 0,00, 0,00
40, -21948,34, -17851,42, -9676,54, -17387,96, -13130,91, 4979,81, -16489,11, -14961,50, 0,00, 0,00, 0,00
41, -21944,03, -17843,08, -9899,32, -17381,90, -13136,90, 4811,50, -16490,69, -14955,80, 0,00, 0,00, 0,00
42, -21947,76, -17834,79, -9915,64, -17367,71, -13124,54, 4785,89, -16467,56, -14945,52, 0,00, 0,00, 0,00
43, -21962,53, -17839,80, -9694,64, -17375,91, -13108,98, 4961,82, -16447,24, -14912,50, 0,00, 0,00, 0,00
44, -21973,40, -17854,17, -9541,98, -17384,07, -13117,32, 5098,32, -16460,92, -14907,90, 0,00, 0,00, 0,00
45, -21963,47, -17849,46, -9672,83, -17379,02, -13136,72, 5005,38, -16489,42, -14920,39, 0,00, 0,00, 0,00
46, -21949,81, -17837,72, -9896,30, -17362,52, -13139,88, 4833,72, -16494,92, -14928,35, 0,00, 0,00, 0,00
47, -21958,22, -17840,85, -9920,84, -17360,98, -13131,58, 4793,78, -16476,88, -14936,91, 0,00, 0,00, 0,00
48, -21972,01, -17847,42, -9705,82, -17364,64, -13118,19, 4955,07, -16456,09, -14930,88, -0,15, 0,95, 0,26
49, -21978,04, -17859,29, -9564,33, -17369,43, -13123,85, 5074,92, -16467,18, -14922,94, 0,00, 0,00, 0,00
50, -21978,69, -17868,19, -9696,28, -17377,21, -13147,12, 4977,51, -16502,74, -14960,29, 0,00, 0,00, 0,00
51, -21976,59, -17867,83, -9927,04, -17376,47, -13155,95, 4798,63, -16515,53, -14984,77, 0,00, 0,00, 0,00
52, -21975,36, -17861,19, -9936,56, -17367,33, -13134,82, 4775,41, -16483,88, -14946,66, 0,00, 0,00, 0,00
53, -21986,45, -17865,35, -9709,80, -17370,63, -13116,61, 4948,81, -16470,71, -14920,39, 0,00, 0,00, 0,00
54, -22000,62, -17883,16, -9557,47, -17386,95, -13125,66, 5076,95, -16500,71, -14917,00, 0,00, 0,00, 0,00
55, -21995,77, -17887,94, -9701,30, -17388,18, -13144,97, 4966,96, -16538,53, -14933,74, 0,00, 0,00, 0,00
56, -21986,29, -17879,99, -9930,03, -17377,86, -13137,55, 4792,24, -16510,92, -14939,91, 0,00, 0,00, 0,00
57, -21996,31, -17882,00, -9925,40, -17376,92, -13116,23, 4783,47, -16436,44, -14934,36, 0,00, 0,00, 0,00
58, -22010,48, -17892,62, -9690,08, -17384,18, -13115,82, 4970,20, -16440,74, -14937,18, -0,13, 0,95, 0,26
59, -22012,62, -17900,21, -9564,24, -17393,48, -13129,06, 5081,36, -16471,09, -14945,99, 0,00, 0,00, 0,00
60, -22013,21, -17908,37, -9696,10, -17396,96, -13142,60, 4990,65, -16461,61, -14944,67, 0,00, 0,00, 0,00
61, -22003,77, -17900,53, -9905,64, -17390,13, -13146,67, 4836,69, -16461,79, -14947,08, 0,00, 0,00, 0,00
62, -22006,23, -17898,65, -9918,63, -17376,80, -13132,59, 4814,65, -16452,65, -14921,38, 0,00, 0,00, 0,00
63, -22017,59, -17904,26, -9699,52, -17375,62, -13118,22, 4985,15, -16438,17, -14887,40, 0,00, 0,00, 0,00
64, -22032,83, -17922,39, -9531,32, -17397,52, -13131,11, 5130,46, -16447,82, -14899,07, 0,00, 0,00, 0,00
65, -22021,99, -17920,60, -9680,85, -17407,70, -13162,03, 5008,58, -16496,37, -14959,40, 0,00, 0,00, 0,00
66, -22014,48, -17915,79, -9916,04, -17398,29, -13167,05, 4822,19, -16505,44, -14979,11, 0,00, 0,00, 0,00
67, -22016,04, -17912,82, -9933,36, -17396,09, -13159,75, 4787,86, -16493,82, -14952,87, 0,00, 0,00, 0,00
68, -22030,08, -17920,00, -9710,69, -17400,94, -13148,88, 4957,42, -16479,40, -14920,82, -0,15, 0,95, 0,26
69, -22037,12, -17929,21, -9555,04, -17406,11, -13153,60, 5089,56, -16496,62, -14923,30, 0,00, 0,00, 0,00
70, -22031,64, -17932,40, -9677,54, -17407,49, -13167,84, 4997,49, -16511,50, -14948,67, 0,00, 0,00, 0,00
71, -22016,04, -17915,08, -9911,39, -17389,92, -13164,66, 4816,20, -16497,31, -14959,49, 0,00, 0,00, 0,00
72, -22032,83, -17921,65, -9902,87, -17392,16, -13156,19, 4813,96, -16504,71, -14931,23, 0,00, 0,00, 0,00
73, -22039,02, -17922,32, -9684,21, -17391,02, -13134,42, 4986,96, -16465,95, -14886,33, 0,00, 0,00, 0,00
74, -22042,24, -17928,31, -9561,25, -17394,89, -13135,47, 5090,05, -16445,88, -14916,86, 0,00, 0,00, 0,00
75, -22037,77, -17931,44, -9678,13, -17397,88, -13147,05, 5005,87, -16463,80, -14948,94, 0,00, 0,00, 0,00
76, -22031,91, -17926,48, -9892,70, -17388,29, -13149,51, 4847,49, -16491,54, -14923,12, 0,00, 0,00, 0,00
77, -22030,08, -17916,17, -9914,09, -17377,88, -13138,42, 4818,05, -16485,57, -14902,56, -0,15, 0,95, 0,26
78, -22042,98, -17922,39, -9702,89, -17377,05, -13122,87, 4980,50, -16436,60, -14888,03, 0,00, 0,00, 0,00
79, -22045,84, -17927,93, -9539,99, -17384,27, -13129,55, 5123,58, -16441,41, -14894,84, 0,00, 0,00, 0,00
80, -22035,91, -17924,62, -9656,22, -17385,16, -13145,33, 5041,68, -16466,06, -14921,38, 0,00, 0,00, 0,00
81, -22026,35, -17918,30, -9901,76, -17382,44, -13158,40, 4849,37, -16491,56, -14970,75, 0,00, 0,00, 0,00
82, -22031,35, -17913,45, -9930,68, -17378,28, -13146,02, 4807,64, -16472,86, -14978,84, 0,00, 0,00, 0,00
83, -22039,67, -17913,49, -9687,92, -17371,22, -13119,49, 5003,68, -16434,48, -14893,55, 0,00, 0,00, 0,00
84, -22051,72, -17930,93, -9529,64, -17388,14, -13131,31, 5143,38, -16452,56, -14880,81, 0,00, 0,00, 0,00
85, -22046,78, -17936,29, -9680,25, -17397,75, -13156,55, 5027,11, -16485,95, -14938,97, 0,00, 0,00, 0,00
86, -22030,19, -17925,09, -9912,84, -17388,52, -13157,89, 4845,30, -16490,27, -14956,42, 0,00, 0,00, 0,00
87, -22023,44, -17907,03, -9915,28, -17369,25, -13135,76, 4825,47, -16471,07, -14906,36, -0,15, 0,95, 0,26
88, -22025,03, -17900,66, -9682,80, -17368,51, -13118,08, 5004,26, -16452,09, -14886,33, 0,00, 0,00, 0,00
89, -22026,95, -17907,08, -9534,52, -17380,92, -13126,91, 5127,00, -16447,73, -14902,76, 0,00, 0,00, 0,00
90, -22025,54, -17916,35, -9676,72, -17395,78, -13156,17, 5011,08, -16480,37, -14951,24, 0,00, 0,00, 0,00
91, -22023,22, -17918,74, -9907,81, -17398,40, -13166,54, 4828,51, -16479,54, -14984,01, 0,00, 0,00, 0,00
92, -22024,34, -17911,03, -9916,51, -17385,23, -13147,36, 4804,82, -16465,21, -14938,03, 0,00, 0,00, 0,00
93, -22035,76, -17916,35, -9681,05, -17385,01, -13127,36, 4989,94, -16450,57, -14876,85, 0,00, 0,00, 0,00
94, -22040,72, -17926,30, -9525,49, -17397,57, -13134,33, 5125,79, -16446,90, -14896,72, 0,00, 0,00, 0,00
95, -22032,61, -17925,34, -9664,45, -17400,72, -13154,38, 5025,70, -16467,07, -14936,20, 0,00, 0,00, 0,00
96, -22020,67, -17912,71, -9905,42, -17388,56, -13158,27, 4843,13, -16483,05, -14971,24, 0,00, 0,00, 0,00
97, -22022,48, -17904,89, -9917,11, -17377,18, -13138,06, 4825,25, -16457,50, -14930,16, -0,14, 0,95, 0,25
98, -22035,94, -17914,77, -9691,74, -17379,60, -13116,65, 5008,04, -16415,28, -14874,10, 0,00, 0,00, 0,00
99, -22046,78, -17930,32, -9539,21, -17395,69, -13124,65, 5143,90, -16436,04, -14889,95, 0,00, 0,00, 0,00
100, -22038,75, -17930,30, -9674,01, -17400,59, -13144,43, 5043,69, -16481,59, -14938,25, 0,00, 0,00, 0,00
101, -22024,98, -17917,25, -9899,23, -17387,42, -13139,32, 4873,37, -16465,08, -14935,97, 0,00, 0,00, 0,00
102, -22024,31, -17907,52, -9926,34, -17375,84, -13125,44, 4836,65, -16441,23, -14916,10, 0,00, 0,00, 0,00
103, -22034,51, -17907,90, -9698,40, -17374,93, -13108,87, 5015,57, -16419,88, -14891,42, 0,00, 0,00, 0,00
104, -22037,86, -17914,68, -9543,64, -17383,80, -13116,07, 5150,62, -16434,48, -14889,64, 0,00, 0,00, 0,00
105, -22034,80, -17921,03, -9667,82, -17391,24, -13139,88, 5056,25, -16471,31, -14939,28, 0,00, 0,00, 0,00
106, -22021,09, -17911,70, -9898,07, -17387,33, -13149,73, 4876,10, -16486,58, -14972,70, 0,00, 0,00, 0,00
107, -22015,48, -17897,78, -9927,55, -17371,46, -13134,33, 4837,07, -16470,33, -14924,53, -0,14, 0,95, 0,25
108, -22022,68, -17895,90, -9705,98, -17365,16, -13116,47, 5009,50, -16442,81, -14899,02, 0,00, 0,00, 0,00
109, -22020,40, -17898,72, -9546,65, -17369,50, -13112,52, 5146,24, -16425,11, -14877,01, 0,00, 0,00, 0,00
110, -22016,29, -17902,76, -9687,33, -17380,58, -13140,57, 5034,24, -16457,39, -14918,09, 0,00, 0,00, 0,00
111, -22007,13, -17893,40, -9913,92, -17379,55, -13150,92, 4858,20, -16478,49, -14944,51, 0,00, 0,00, 0,00
112, -22002,88, -17882,76, -9944,76, -17376,49, -13148,46, 4811,75, -16485,62, -14948,53, 0,00, 0,00, 0,00
113, -22016,51, -17890,96, -9725,62, -17385,39, -13139,41, 4975,70, -16469,46, -14935,82, 0,00, 0,00, 0,00
114, -22015,51, -17893,17, -9552,69, -17385,12, -13129,46, 5129,68, -16433,70, -14891,33, 0,00, 0,00, 0,00
115, -22007,13, -17889,84, -9678,22, -17385,12, -13143,12, 5043,25, -16445,25, -14899,94, 0,00, 0,00, 0,00
116, -22013,92, -17897,02, -9896,93, -17393,19, -13161,40, 4881,22, -16475,52, -14923,30, 0,00, 0,00, 0,00
117, -22011,95, -17885,28, -9932,71, -17382,93, -13152,86, 4836,56, -16463,89, -14933,89, -0,14, 0,96, 0,25
118, -22017,47, -17885,89, -9709,96, -17380,45, -13130,58, 5011,46, -16434,90, -14937,71, 0,00, 0,00, 0,00
119, -22021,90, -17895,30, -9566,79, -17390,80, -13134,78, 5138,24, -16454,84, -14929,56, 0,00, 0,00, 0,00
120, -22010,41, -17893,04, -9679,42, -17388,92, -13143,81, 5067,54, -16474,33, -14913,73, 0,00, 0,00, 0,00
121, -22002,32, -17885,08, -9909,33, -17385,28, -13148,17, 4897,87, -16465,84, -14930,65, 0,00, 0,00, 0,00
122, -22008,22, -17882,87, -9909,85, -17382,50, -13133,13, 4889,47, -16438,14, -14914,02, 0,00, 0,00, 0,00
123, -22018,57, -17888,55, -9705,55, -17381,97, -13121,77, 5045,68, -16434,43, -14896,72, 0,00, 0,00, 0,00
124, -22022,61, -17899,75, -9558,61, -17391,02, -13122,60, 5173,71, -16432,73, -14894,04, 0,00, 0,00, 0,00
125, -22014,68, -17902,00, -9684,88, -17386,57, -13135,20, 5079,19, -16449,59, -14921,82, 0,00, 0,00, 0,00
126, -22001,69, -17890,87, -9905,29, -17373,45, -13138,76, 4912,24, -16464,12, -14930,21, 0,00, 0,00, 0,00
127, -21989,18, -17874,11, -9945,63, -17359,79, -13124,21, 4859,65, -16457,72, -14912,14, -0,14, 0,95, 0,25
128, -21997,49, -17876,97, -9745,81, -17362,77, -13110,82, 5009,20, -16439,80, -14892,45, 0,00, 0,00, 0,00
129, -22009,22, -17896,19, -9579,35, -17376,29, -13116,67, 5154,49, -16422,29, -14877,32, 0,00, 0,00, 0,00
130, -22006,16, -17902,21, -9701,24, -17384,43, -13141,24, 5066,04, -16451,82, -14911,56, 0,00, 0,00, 0,00
131, -21992,44, -17886,85, -9913,78, -17364,09, -13145,24, 4904,33, -16464,61, -14933,63, 0,00, 0,00, 0,00
132, -21994,92, -17880,77, -9933,85, -17351,86, -13133,77, 4872,64, -16449,54, -14933,49, 0,00, 0,00, 0,00
133, -22010,90, -17888,86, -9715,65, -17359,64, -13118,51, 5041,17, -16427,32, -14881,79, 0,00, 0,00, 0,00
134, -22018,57, -17898,36, -9566,81, -17374,48, -13124,65, 5168,75, -16437,72, -14882,77, 0,00, 0,00, 0,00
135, -22006,05, -17893,13, -9701,75, -17381,21, -13140,61, 5065,58, -16461,54, -14930,12, 0,00, 0,00, 0,00
136, -21998,97, -17886,00, -9917,83, -17380,36, -13148,77, 4897,78, -16472,59, -14944,31, 0,00, 0,00, 0,00
137, -21998,01, -17879,83, -9937,41, -17366,21, -13138,47, 4861,55, -16466,62, -14938,05, -0,15, 0,96, 0,26
138, -22014,52, -17894,18, -9721,18, -17372,83, -13124,07, 5022,66, -16435,39, -14906,00, 0,00, 0,00, 0,00
139, -22010,57, -17894,18, -9573,03, -17385,83, -13129,10, 5140,74, -16456,18, -14913,73, 0,00, 0,00, 0,00
140, -22003,32, -17896,46, -9689,68, -17393,59, -13147,76, 5048,68, -16490,11, -14952,49, 0,00, 0,00, 0,00
141, -21993,89, -17889,75, -9907,39, -17365,61, -13150,74, 4884,48, -16488,39, -14924,71, 0,00, 0,00, 0,00
142, -21999,30, -17884,48, -9925,60, -17375,66, -13141,77, 4856,94, -16465,21, -14923,21, 0,00, 0,00, 0,00
143, -22003,71, -17882,51, -9690,04, -17363,21, -13109,16, 5045,12, -16403,43, -14889,46, 0,00, 0,00, 0,00
144, -22001,54, -17885,24, -9533,06, -17367,66, -13110,62, 5188,13, -16405,87, -14873,88, 0,00, 0,00, 0,00
145, -21999,28, -17890,47, -9666,15, -17374,03, -13138,96, 5093,40, -16442,03, -14907,47, 0,00, 0,00, 0,00
146, -21985,00, -17880,46, -9918,88, -17367,39, -13151,48, 4900,06, -16475,07, -14931,12, 0,00, 0,00, 0,00
147, -21985,22, -17871,18, -9932,04, -17363,33, -13137,04, 4880,53, -16455,82, -14922,67, -0,15, 0,96, 0,26
148, -22006,88, -17882,69, -9713,44, -17382,55, -13129,19, 5051,23, -16439,98, -14897,91, 0,00, 0,00, 0,00
149, -22002,36, -17884,79, -9575,42, -17379,46, -13133,21, 5169,87, -16447,55, -14895,74, 0,00, 0,00, 0,00
150, -21979,65, -17870,04, -9690,71, -17359,08, -13137,75, 5089,00, -16456,85, -14921,69, 0,00, 0,00, 0,00
151, -21977,46, -17866,78, -9905,02, -17362,81, -13147,05, 4930,46, -16472,95, -14938,47, 0,00, 0,00, 0,00
152, -21991,66, -17876,52, -9941,47, -17379,53, -13143,34, 4886,78, -16457,88, -14917,60, 0,00, 0,00, 0,00
153, -22005,36, -17893,33, -9735,17, -17394,24, -13136,52, 5041,26, -16448,07, -14925,24, 0,00, 0,00, 0,00
154, -22010,86, -17898,81, -9571,75, -17383,55, -13137,21, 5180,37, -16441,96, -14941,20, 0,00, 0,00, 0,00
155, -21996,13, -17888,37, -9690,29, -17366,39, -13147,65, 5091,26, -16461,63, -14933,56, 0,00, 0,00, 0,00
156, -21974,83, -17867,45, -9930,12, -17352,64, -13147,00, 4905,27, -16473,84, -14917,04, -0,13, 0,96, 0,26
157, -21977,73, -17864,45, -9953,66, -17352,73, -13135,56, 4866,42, -16469,17, -14923,45, 0,00, 0,00, 0,00
158, -22001,60, -17884,39, -9731,86, -17379,13, -13121,19, 5032,18, -16430,23, -14907,52, 0,00, 0,00, 0,00
159, -21996,20, -17874,15, -9564,22, -17379,40, -13128,36, 5175,05, -16437,07, -14924,24, 0,00, 0,00, 0,00
160, -21993,42, -17883,94, -9706,65, -17385,43, -13154,94, 5068,12, -16483,16, -14949,94, 0,00, 0,00, 0,00
161, -21989,69, -17886,02, -9951,04, -17403,38, -13165,65, 4878,42, -16504,73, -14953,92, 0,00, 0,00, 0,00
162, -21978,96, -17859,04, -9963,63, -17364,22, -13147,65, 4852,85, -16483,47, -14940,44, 0,00, 0,00, 0,00
163, -21988,51, -17862,26, -9749,74, -17371,89, -13135,47, 5014,75, -16477,57, -14935,77, 0,00, 0,00, 0,00
164, -22003,46, -17883,27, -9608,14, -17404,77, -13146,65, 5134,35, -16496,06, -14948,33, 0,00, 0,00, 0,00
165, -22003,59, -17898,70, -9746,23, -17390,53, -13155,43, 5033,41, -16482,00, -14928,17, 0,00, 0,00, 0,00
166, -21972,19, -17860,00, -9954,28, -17364,11, -13143,70, 4884,50, -16452,58, -14911,94, -0,13, 0,97, 0,26
167, -21979,52, -17860,29, -9974,93, -17368,04, -13139,03, 4857,19, -16449,56, -14922,63, 0,00, 0,00, 0,00
168, -21995,81, -17863,67, -9769,30, -17388,20, -13131,00, 5018,48, -16449,74, -14917,62, 0,00, 0,00, 0,00
169, -22006,32, -17886,58, -9613,40, -17399,58, -13140,08, 5155,90, -16453,88, -14948,76, 0,00, 0,00, 0,00
170, -21991,54, -17882,67, -9713,71, -17377,38, -13149,02, 5085,87, -16477,66, -14970,59, 0,00, 0,00, 0,00
171, -21981,73, -17879,27, -9946,10, -17396,43, -13155,21, 4906,48, -16487,07, -14969,45, 0,00, 0,00, 0,00
172, -22002,47, -17888,01, -9966,62, -17386,73, -13156,28, 4878,13, -16491,38, -14953,88, 0,00, 0,00, 0,00
173, -22001,74, -17878,29, -9764,40, -17371,26, -13136,83, 5033,19, -16450,46, -14908,14, 0,00, 0,00, 0,00
174, -22009,18, -17904,33, -9610,62, -17387,87, -13140,66, 5166,40, -16441,63, -14905,30, 0,00, 0,00, 0,00
175, -21979,45, -17865,14, -9713,33, -17375,04, -13150,51, 5090,79, -16467,87, -14952,85, 0,00, 0,00, 0,00
176, -21979,72, -17858,35, -9957,10, -17382,57, -13165,89, 4898,18, -16479,45, -14983,09, -0,14, 0,96, 0,26
177, -21982,96, -17860,32, -9967,47, -17376,67, -13148,95, 4877,22, -16471,16, -14928,64, 0,00, 0,00, 0,00
178, -21992,22, -17865,23, -9762,06, -17384,78, -13136,99, 5029,01, -16462,51, -14911,27, 0,00, 0,00, 0,00
179, -22003,23, -17888,59, -9617,96, -17393,54, -13155,54, 5147,70, -16481,44, -14958,61, 0,00, 0,00, 0,00
180, -21992,91, -17880,72, -9729,24, -17393,95, -13165,87, 5069,13, -16488,23, -14950,99, 0,00, 0,00, 0,00
181, -21972,93, -17862,33, -9949,92, -17387,73, -13163,14, 4903,55, -16488,61, -14939,84, 0,00, 0,00, 0,00
182, -21970,29, -17850,75, -9991,72, -17388,49, -13149,80, 4852,36, -16468,72, -14936,35, 0,00, 0,00, 0,00
183, -21988,82, -17863,69, -9781,50, -17387,22, -13136,12, 5011,62, -16458,95, -14938,70, 0,00, 0,00, 0,00
184, -21998,79, -17882,49, -9629,29, -17415,00, -13148,23, 5141,19, -16473,99, -14962,93, 0,00, 0,00, 0,00
185, -21996,96, -17883,83, -9749,90, -17408,03, -13172,29, 5054,42, -16504,37, -14984,56, 0,00, 0,00, 0,00
186, -21986,43, -17894,83, -9980,32, -17419,88, -13179,75, 4880,10, -16515,08, -14996,61, -0,14, 0,96, 0,26
187, -21965,04, -17855,96, -10005,67, -17384,78, -13151,63, 4841,03, -16478,09, -14972,09, 0,00, 0,00, 0,00
188, -21960,41, -17829,36, -9783,29, -17351,61, -13126,89, 5011,13, -16449,92, -14942,23, 0,00, 0,00, 0,00
189, -21985,62, -17865,68, -9636,98, -17383,96, -13144,41, 5132,30, -16465,72, -14949,45, 0,00, 0,00, 0,00
190, -21969,60, -17866,13, -9744,06, -17393,54, -13156,50, 5053,64, -16484,21, -14962,12, 0,00, 0,00, 0,00
191, -21955,25, -17845,63, -9968,34, -17377,05, -13160,01, 4882,60, -16498,69, -14978,51, 0,00, 0,00, 0,00
192, -21960,74, -17843,58, -9990,27, -17376,36, -13158,45, 4851,63, -16494,60, -14979,54, 0,00, 0,00, 0,00
193, -21968,25, -17847,22, -9764,16, -17380,83, -13144,88, 5029,52, -16480,32, -14960,89, 0,00, 0,00, 0,00
194, -21975,63, -17866,58, -9627,14, -17389,37, -13148,53, 5143,34, -16479,96, -14938,23, 0,00, 0,00, 0,00
195, -21967,96, -17860,36, -9741,05, -17381,43, -13162,88, 5059,38, -16488,21, -14943,30, 0,00, 0,00, 0,00
196, -21955,36, -17850,59, -9961,79, -17373,81, -13155,36, 4899,70, -16471,25, -14929,33, -0,14, 0,96, 0,26
197, -21985,38, -17880,32, -10022,52, -17408,63, -13169,13, 4834,66, -16475,22, -14957,76, 0,00, 0,00, 0,00
198, -21960,61, -17849,86, -9802,11, -17361,52, -13133,97, 5004,13, -16454,82, -14936,80, 0,00, 0,00, 0,00
199, -21962,18, -17842,86, -9638,61, -17363,53, -13131,34, 5144,39, -16459,47, -14934,23, 0,00, 0,00, 0,00
200, -21962,62, -17849,92, -9757,56, -17377,81, -13152,26, 5057,82, -16490,31, -14969,88, 0,00, 0,00, 0,00
201, -21960,28, -17857,41, -10000,10, -17382,17, -13160,08, 4874,40, -16503,05, -14977,86, 0,00, 0,00, 0,00
202, -21969,48, -17855,00, -10015,95, -17384,31, -13151,25, 4853,41, -16479,25, -14939,39, 0,00, 0,00, 0,00
203, -21964,32, -17846,39, -9810,45, -17373,03, -13131,36, 5012,89, -16470,02, -14915,68, 0,00, 0,00, 0,00
204, -21950,13, -17839,71, -9651,95, -17362,30, -13117,52, 5151,34, -16458,64, -14914,11, 0,00, 0,00, 0,00
205, -21956,27, -17850,01, -9782,40, -17388,03, -13143,88, 5052,32, -16492,99, -14954,48, 0,00, 0,00, 0,00
206, -21952,97, -17841,29, -10013,54, -17382,44, -13152,28, 4877,11, -16479,22, -14994,60, -0,14, 0,96, 0,26
207, -21937,16, -17823,77, -10030,95, -17359,44, -13136,95, 4850,51, -16469,26, -14994,11, 0,00, 0,00, 0,00
208, -21955,92, -17843,89, -9821,83, -17372,38, -13131,40, 5010,23, -16473,28, -14991,92, 0,00, 0,00, 0,00
209, -21954,55, -17848,72, -9653,99, -17375,73, -13129,77, 5157,02, -16461,81, -14976,43, 0,00, 0,00, 0,00
210, -21949,48, -17854,51, -9773,52, -17387,67, -13141,46, 5072,57, -16471,02, -14927,19, 0,00, 0,00, 0,00
211, -21942,71, -17849,79, -10015,53, -17391,82, -13158,00, 4884,17, -16503,14, -14964,72, 0,00, 0,00, 0,00
212, -21945,52, -17835,98, -10040,27, -17374,64, -13154,56, 4847,29, -16513,69, -14980,34, 0,00, 0,00, 0,00
213, -21950,78, -17834,77, -9795,09, -17372,24, -13127,92, 5042,06, -16456,61, -14912,95, 0,00, 0,00, 0,00
214, -21959,92, -17847,17, -9630,07, -17388,23, -13134,94, 5183,55, -16451,87, -14919,10, 0,00, 0,00, 0,00
215, -21942,75, -17837,70, -9754,99, -17387,13, -13149,67, 5089,83, -16472,54, -14935,44, 0,00, 0,00, 0,00
216, -21941,46, -17847,82, -10004,77, -17389,21, -13159,77, 4892,57, -16487,83, -14966,21, -0,14, 0,96, 0,26
217, -21938,28, -17835,08, -10037,68, -17369,88, -13143,41, 4845,17, -16482,15, -14968,02, 0,00, 0,00, 0,00
218, -21943,42, -17825,67, -9826,09, -17367,51, -13121,55, 5001,78, -16451,67, -14949,20, 0,00, 0,00, 0,00
219, -21947,65, -17835,37, -9645,45, -17376,00, -13121,57, 5156,44, -16455,73, -14929,56, 0,00, 0,00, 0,00
220, -21933,74, -17825,43, -9749,47, -17378,41, -13135,11, 5080,06, -16476,61, -14936,13, 0,00, 0,00, 0,00
221, -21912,40, -17804,97, -9989,51, -17353,63, -13140,86, 4889,40, -16497,08, -14962,79, 0,00, 0,00, 0,00
222, -21924,60, -17809,42, -10022,21, -17357,00, -13131,56, 4845,75, -16502,20, -14950,41, 0,00, 0,00, 0,00
223, -21937,34, -17818,27, -9795,00, -17362,77, -13104,85, 5023,58, -16455,80, -14897,68, 0,00, 0,00, 0,00
224, -21935,44, -17813,42, -9633,04, -17354,61, -13104,16, 5162,31, -16454,82, -14902,22, 0,00, 0,00, 0,00
225, -21928,22, -17813,83, -9748,51, -17363,30, -13122,17, 5076,37, -16478,06, -14935,46, -0,15, 0,96, 0,27
226, -21910,77, -17800,01, -9973,53, -17360,87, -13129,17, 4904,04, -16498,69, -14962,46, 0,00, 0,00, 0,00
227, -21918,75, -17802,20, -9997,73, -17366,59, -13122,35, 4869,39, -16485,93, -14949,94, 0,00, 0,00, 0,00
228, -21910,32, -17788,77, -9784,57, -17337,69, -13089,94, 5035,40, -16441,59, -14902,80, 0,00, 0,00, 0,00
229, -21923,19, -17804,04, -9618,94, -17361,52, -13105,01, 5174,52, -16469,50, -14942,01, 0,00, 0,00, 0,00
230, -21929,03, -17818,86, -9714,72, -17372,87, -13133,88, 5104,60, -16509,60, -14972,20, 0,00, 0,00, 0,00
231, -21913,38, -17805,15, -9947,73, -17359,39, -13135,74, 4925,68, -16515,21, -14955,22, 0,00, 0,00, 0,00
232, -21901,65, -17788,48, -9986,49, -17335,56, -13112,43, 4879,88, -16480,16, -14925,15, 0,00, 0,00, 0,00
233, -21912,13, -17794,65, -9762,77, -17343,37, -13093,90, 5050,89, -16430,81, -14902,26, 0,00, 0,00, 0,00
234, -21913,13, -17799,01, -9589,81, -17345,09, -13096,36, 5199,64, -16434,19, -14917,35, 0,00, 0,00, 0,00
235, -21911,01, -17804,51, -9696,14, -17355,73, -13119,69, 5126,39, -16467,11, -14942,61, -0,14, 0,95, 0,26
236, -21901,33, -17796,50, -9942,17, -17347,19, -13130,49, 4934,39, -16490,36, -14956,80, 0,00, 0,00, 0,00
237, -21900,91, -17789,19, -9979,94, -17343,41, -13118,10, 4886,72, -16478,09, -14943,19, 0,00, 0,00, 0,00
238, -21916,02, -17797,98, -9767,18, -17348,73, -13107,40, 5045,68, -16465,61, -14915,36, 0,00, 0,00, 0,00
239, -21921,74, -17803,57, -9614,36, -17358,56, -13116,41, 5172,46, -16481,55, -14907,47, 0,00, 0,00, 0,00
240, -21907,50, -17797,62, -9722,96, -17352,66, -13128,72, 5090,14, -16480,63, -14932,44, 0,00, 0,00, 0,00
241, -21895,75, -17788,75, -9958,57, -17346,36, -13134,02, 4906,86, -16479,54, -14935,48, 0,00, 0,00, 0,00
242, -21903,72, -17787,92, -9973,73, -17334,80, -13126,62, 4879,72, -16480,92, -14936,04, 0,00, 0,00, 0,00
243, -21904,46, -17785,01, -9776,94, -17332,93, -13107,60, 5028,56, -16465,08, -14912,77, 0,00, 0,00, 0,00
244, -21917,03, -17799,30, -9599,96, -17349,74, -13103,91, 5181,07, -16448,54, -14908,05, 0,00, 0,00, 0,00
245, -21918,14, -17807,23, -9686,89, -17364,11, -13127,09, 5123,53, -16472,50, -14940,06, -0,14, 0,95, 0,26
246, -21903,57, -17794,65, -9912,89, -17353,02, -13131,09, 4949,88, -16493,20, -14950,77, 0,00, 0,00, 0,00
247, -21900,62, -17782,02, -9937,90, -17344,64, -13116,92, 4916,74, -16484,46, -14925,67, 0,00, 0,00, 0,00
248, -21911,21, -17788,14, -9743,73, -17347,14, -13107,02, 5059,70, -16476,16, -14934,29, 0,00, 0,00, 0,00
249, -21917,70, -17796,17, -9592,32, -17358,74, -13110,84, 5181,89, -16473,28, -14972,67, 0,00, 0,00, 0,00
250, -21910,10, -17794,67, -9688,86, -17363,33, -13128,27, 5115,60, -16497,80, -14945,47, 0,00, 0,00, 0,00
251, -21901,96, -17789,24, -9916,93, -17365,27, -13145,60, 4943,89, -16534,63, -14942,30, 0,00, 0,00, 0,00
252, -21897,13, -17777,62, -9949,52, -17353,56, -13130,51, 4902,21, -16517,76, -14924,35, 0,00, 0,00, 0,00
253, -21907,21, -17780,16, -9727,39, -17350,63, -13105,32, 5072,42, -16456,67, -14893,17, 0,00, 0,00, 0,00
254, -21914,43, -17792,19, -9552,22, -17355,66, -13110,48, 5221,41, -16449,79, -14910,16, 0,00, 0,00, 0,00
255, -21904,78, -17790,78, -9674,53, -17356,13, -13128,81, 5127,02, -16469,61, -14948,87, -0,14, 0,96, 0,25
0, -21902,16, -17791,25, -9916,73, -17355,39, -13145,26, 4936,09, -16504,35, -14972,34, 0,00, 0,00, 0,00
1, -21906,07, -17787,50, -9957,34, -17341,42, -13129,50, 4883,54, -16491,29, -14968,76, 0,00, 0,00, 0,00
2, -21912,80, -17786,13, -9727,17, -17339,66, -13101,99, 5063,30, -16432,42, -14916,64, 0,00, 0,00, 0,00
3, -21915,35, -17791,83, -9571,51, -17350,14, -13111,24, 5196,71, -16447,64, -14896,86, 0,00, 0,00, 0,00
4, -21912,96, -17796,75, -9681,46, -17358,39, -13130,91, 5119,69, -16480,52, -14921,46, 0,00, 0,00, 0,00
5, -21906,50, -17791,56, -9899,86, -17348,64, -13139,67, 4959,18, -16499,19, -14949,90, 0,00, 0,00, 0,00
6, -21901,60, -17782,06, -9944,40, -17334,20, -13124,92, 4907,10, -16485,08, -14940,80, 0,00, 0,00, 0,00
7, -21911,84, -17783,54, -9735,88, -17336,26, -13110,26, 5065,89, -16469,03, -14917,02, 0,00, 0,00, 0,00
8, -21914,57, -17789,93, -9574,08, -17349,24, -13113,23, 5204,13, -16464,12, -14930,74, 0,00, 0,00, 0,00
9, -21903,64, -17791,92, -9693,06, -17347,75, -13130,24, 5114,06, -16480,68, -14965,34, -0,14, 0,96, 0,26
10, -21891,46, -17780,28, -9938,57, -17339,46, -13139,83, 4923,82, -16508,86, -14972,90, 0,00, 0,00, 0,00
11, -21896,01, -17777,86, -9969,30, -17333,82, -13131,52, 4884,95, -16511,30, -14947,66, 0,00, 0,00, 0,00
12, -21903,61, -17780,97, -9739,24, -17332,19, -13106,03, 5064,08, -16457,81, -14896,88, 0,00, 0,00, 0,00
13, -21907,46, -17788,32, -9552,87, -17342,29, -13105,10, 5224,99, -16440,71, -14891,96, 0,00, 0,00, 0,00
14, -21900,13, -17790,74, -9670,04, -17351,01, -13126,87, 5135,00, -16480,66, -14948,13, 0,00, 0,00, 0,00
15, -21896,91, -17791,34, -9873,79, -17353,09, -13133,48, 4983,23, -16493,57, -14966,93, 0,00, 0,00, 0,00
16, -21889,11, -17778,22, -9918,97, -17340,21, -13121,41, 4930,12, -16484,84, -14966,35, 0,00, 0,00, 0,00
17, -21895,72, -17779,34, -9720,15, -17346,27, -13115,62, 5076,08, -16492,08, -14986,35, 0,00, 0,00, 0,00
18, -21901,56, -17788,37, -9563,39, -17356,49, -13120,41, 5209,48, -16502,67, -14958,17, 0,00, 0,00, 0,00
19, -21889,33, -17787,83, -9679,89, -17358,63, -13127,11, 5125,95, -16486,65, -14933,71, -0,14, 0,96, 0,25
20, -21880,81, -17780,23, -9926,52, -17357,25, -13138,38, 4931,89, -16520,49, -14960,63, 0,00, 0,00, 0,00
21, -21884,66, -17776,86, -9948,69, -17339,54, -13121,90, 4897,16, -16511,08, -14967,55, 0,00, 0,00, 0,00
22, -21892,10, -17776,61, -9736,22, -17342,16, -13098,37, 5059,83, -16441,00, -14944,58, 0,00, 0,00, 0,00
23, -21898,58, -17783,43, -9562,14, -17361,54, -13104,94, 5210,26, -16446,64, -14942,27, 0,00, 0,00, 0,00
24, -21890,78, -17785,06, -9664,25, -17357,85, -13123,98, 5137,55, -16482,15, -14978,26, 0,00, 0,00, 0,00
25, -21879,59, -17776,81, -9907,32, -17344,80, -13132,88, 4950,67, -16495,68, -14985,68, 0,00, 0,00, 0,00
26, -21881,80, -17774,75, -9955,00, -17334,94, -13123,49, 4896,53, -16485,04, -14976,07, 0,00, 0,00, 0,00
27, -21892,37, -17780,79, -9746,05, -17337,85, -13104,40, 5058,18, -16453,57, -14927,43, 0,00, 0,00, 0,00
28, -21903,84, -17792,41, -9566,46, -17345,82, -13104,29, 5213,86, -16444,02, -14898,04, 0,00, 0,00, 0,00
29, -21895,81, -17789,60, -9649,67, -17349,36, -13123,04, 5159,18, -16468,97, -14909,91, -0,15, 0,95, 0,25
30, -21884,01, -17781,88, -9894,25, -17341,31, -13134,76, 4969,46, -16490,13, -14936,64, 0,00, 0,00, 0,00
31, -21888,88, -17779,29, -9937,56, -17335,05, -13129,57, 4919,19, -16488,63, -14947,57, 0,00, 0,00, 0,00
32, -21899,19, -17781,57, -9729,89, -17335,14, -13114,24, 5079,17, -16461,14, -14934,34, 0,00, 0,00, 0,00
33, -21903,30, -17789,73, -9580,92, -17344,53, -13118,35, 5207,93, -16467,67, -14929,33, 0,00, 0,00, 0,00
34, -21895,84, -17789,51, -9693,84, -17350,23, -13139,76, 5127,07, -16504,17, -14960,47, 0,00, 0,00, 0,00
35, -21888,08, -17781,64, -9921,69, -17342,43, -13149,02, 4952,99, -16515,12, -14974,51, 0,00, 0,00, 0,00
36, -21891,14, -17776,39, -9955,44, -17333,42, -13134,87, 4908,13, -16487,29, -14957,38, 0,00, 0,00, 0,00
37, -21902,14, -17780,48, -9749,94, -17334,38, -13114,19, 5061,08, -16457,63, -14943,48, 0,00, 0,00, 0,00
38, -21916,78, -17796,62, -9583,13, -17348,60, -13120,99, 5202,84, -16473,77, -14919,59, 0,00, 0,00, 0,00
39, -21915,50, -17804,42, -9678,66, -17361,20, -13141,33, 5133,70, -16505,22, -14951,01, -0,15, 0,96, 0,25
40, -21908,78, -17800,64, -9918,54, -17360,73, -13155,14, 4942,73, -16536,15, -15008,84, 0,00, 0,00, 0,00
41, -21913,25, -17797,24, -9961,77, -17352,75, -13140,46, 4892,82, -16521,98, -14958,95, 0,00, 0,00, 0,00
42, -21925,88, -17802,58, -9749,81, -17355,66, -13118,35, 5052,88, -16472,10, -14925,00, 0,00, 0,00, 0,00
43, -21934,64, -17814,03, -9570,03, -17370,14, -13123,42, 5204,16, -16457,75, -14931,23, 0,00, 0,00, 0,00
44, -21929,36, -17819,28, -9677,54, -17380,07, -13149,96, 5122,82, -16494,11, -14974,15, 0,00, 0,00, 0,00
45, -21917,25, -17808,24, -9929,54, -17372,36, -13156,95, 4924,49, -16516,71, -15002,13, 0,00, 0,00, 0,00
46, -21919,84, -17801,78, -9963,11, -17356,84, -13129,77, 4884,33, -16487,96, -14963,62, 0,00, 0,00, 0,00
47, -21931,06, -17805,00, -9741,74, -17353,58, -13101,30, 5060,64, -16437,61, -14904,77, 0,00, 0,00, 0,00
48, -21938,97, -17815,93, -9567,46, -17366,84, -13104,36, 5214,51, -16430,07, -14895,58, -0,15, 0,96, 0,25
49, -21940,20, -17826,57, -9679,71, -17378,03, -13130,80, 5132,07, -16469,21, -14942,30, 0,00, 0,00, 0,00
50, -21944,12, -17834,39, -9910,92, -17382,13, -13145,89, 4956,23, -16494,18, -14987,00, 0,00, 0,00, 0,00
51, -21948,94, -17831,80, -9958,24, -17374,08, -13141,31, 4903,08, -16503,41, -14983,80, 0,00, 0,00, 0,00
52, -21961,93, -17836,22, -9762,62, -17369,18, -13126,29, 5050,47, -16483,88, -14957,00, 0,00, 0,00, 0,00
53, -21971,70, -17847,62, -9592,90, -17373,34, -13127,04, 5199,71, -16468,29, -14926,18, 0,00, 0,00, 0,00
54, -21972,63, -17855,82, -9667,93, -17382,82, -13147,65, 5153,06, -16484,81, -14937,85, 0,00, 0,00, 0,00
55, -21955,65, -17841,23, -9914,09, -17372,47, -13161,22, 4960,86, -16500,59, -14973,21, 0,00, 0,00, 0,00
56, -21954,64, -17835,02, -9959,53, -17365,65, -13156,66, 4906,74, -16501,44, -14994,26, 0,00, 0,00, 0,00
57, -21965,77, -17837,79, -9739,10, -17362,10, -13141,98, 5077,91, -16491,68, -14952,20, 0,00, 0,00, 0,00
58, -21973,44, -17848,07, -9556,62, -17362,63, -13139,43, 5239,20, -16482,94, -14914,38, -0,14, 0,95, 0,26
59, -21968,54, -17850,62, -9664,80, -17367,84, -13157,85, 5157,62, -16494,96, -14958,30, 0,00, 0,00, 0,00
60, -21959,83, -17842,66, -9894,47, -17361,13, -13164,86, 4977,38, -16499,12, -14991,49, 0,00, 0,00, 0,00
61, -21958,67, -17835,24, -9945,79, -17343,50, -13147,50, 4921,09, -16472,90, -14940,62, 0,00, 0,00, 0,00
62, -21975,65, -17847,40, -9748,31, -17348,33, -13134,82, 5067,94, -16458,13, -14920,44, 0,00, 0,00, 0,00
63, -21982,07, -17858,44, -9576,45, -17355,73, -13136,34, 5212,14, -16479,00, -14928,73, 0,00, 0,00, 0,00
64, -21970,65, -17856,72, -9691,49, -17352,42, -13150,11, 5125,50, -16516,57, -14931,48, 0,00, 0,00, 0,00
65, -21966,87, -17855,02, -9905,44, -17348,44, -13147,65, 4964,95, -16493,02, -14949,90, 0,00, 0,00, 0,00
66, -21964,19, -17846,08, -9936,45, -17340,51, -13130,55, 4924,51, -16459,64, -14945,78, 0,00, 0,00, 0,00
67, -21976,50, -17852,14, -9721,40, -17345,00, -13116,94, 5086,56, -16447,15, -14928,48, 0,00, 0,00, 0,00
68, -21980,50, -17862,17, -9561,74, -17354,47, -13123,78, 5219,06, -16463,82, -14939,66, -0,15, 0,96, 0,26
69, -21967,99, -17860,68, -9692,86, -17354,79, -13144,93, 5113,23, -16495,38, -14970,53, 0,00, 0,00, 0,00
70, -21961,62, -17856,67, -9930,25, -17355,57, -13153,71, 4929,19, -16500,04, -14993,75, 0,00, 0,00, 0,00
71, -21966,73, -17855,73, -9965,39, -17352,02, -13143,38, 4890,41, -16487,05, -14957,32, 0,00, 0,00, 0,00
72, -21979,23, -17863,00, -9760,94, -17352,20, -13129,41, 5046,11, -16475,38, -14924,13, 0,00, 0,00, 0,00
73, -21985,35, -17874,60, -9589,50, -17360,13, -13130,67, 5195,39, -16474,40, -14922,09, 0,00, 0,00, 0,00
74, -21976,88, -17872,32, -9701,75, -17360,44, -13144,32, 5115,78, -16481,55, -14950,39, 0,00, 0,00, 0,00
75, -21968,32, -17864,83, -9929,54, -17355,06, -13149,33, 4945,01, -16488,23, -14980,05, 0,00, 0,00, 0,00
76, -21974,42, -17864,01, -9958,69, -17353,07, -13142,56, 4914,54, -16482,80, -14991,76, 0,00, 0,00, 0,00
77, -21982,96, -17866,46, -9762,33, -17352,89, -13128,10, 5066,67, -16465,70, -14950,21, 0,00, 0,00, 0,00
78, -21990,05, -17874,51, -9589,08, -17363,44, -13132,30, 5218,26, -16473,21, -14948,04, -0,15, 0,96, 0,26
79, -21982,83, -17873,93, -9680,29, -17370,43, -13152,55, 5157,06, -16504,86, -14983,47, 0,00, 0,00, 0,00
80, -21975,36, -17866,84, -9921,25, -17365,40, -13160,84, 4974,40, -16511,03, -14991,34, 0,00, 0,00, 0,00
81, -21977,62, -17860,29, -9957,63, -17354,50, -13142,24, 4936,36, -16480,03, -14937,31, 0,00, 0,00, 0,00
82, -21986,61, -17863,04, -9749,12, -17351,08, -13123,13, 5094,39, -16464,74, -14900,05, 0,00, 0,00, 0,00
83, -21989,36, -17867,27, -9588,47, -17356,06, -13125,55, 5226,75, -16471,18, -14909,42, 0,00, 0,00, 0,00
84, -21988,13, -17872,07, -9676,20, -17364,71, -13147,70, 5161,73, -16508,28, -14941,69, 0,00, 0,00, 0,00
85, -21972,21, -17857,21, -9912,66, -17355,26, -13158,78, 4976,01, -16536,02, -14972,11, 0,00, 0,00, 0,00
86, -21968,75, -17846,08, -9963,98, -17342,34, -13136,70, 4912,87, -16481,97, -14990,58, 0,00, 0,00, 0,00
87, -21975,29, -17844,85, -9761,03, -17343,48, -13122,98, 5062,42, -16470,33, -14984,92, 0,00, 0,00, 0,00
88, -21974,31, -17846,21, -9595,16, -17349,63, -13123,07, 5198,08, -16465,14, -14962,97, -0,14, 0,96, 0,26
89, -21961,91, -17840,09, -9689,06, -17347,43, -13131,43, 5130,19, -16478,40, -14931,39, 0,00, 0,00, 0,00
90, -21954,33, -17833,43, -9921,42, -17345,45, -13142,18, 4951,09, -16499,05, -14961,47, 0,00, 0,00, 0,00
91, -21954,02, -17826,25, -9959,98, -17338,78, -13132,72, 4905,96, -16498,27, -14973,25, 0,00, 0,00, 0,00
92, -21962,76, -17830,68, -9734,16, -17337,76, -13108,31, 5083,37, -16449,14, -14933,40, 0,00, 0,00, 0,00
93, -21968,10, -17839,22, -9568,31, -17345,09, -13109,16, 5228,07, -16454,71, -14934,85, 0,00, 0,00, 0,00
94, -21962,31, -17842,82, -9667,96, -17348,46, -13122,60, 5163,43, -16478,44, -14931,79, 0,00, 0,00, 0,00
95, -21945,59, -17830,28, -9923,86, -17341,13, -13131,34, 4970,09, -16495,97, -14952,58, 0,00, 0,00, 0,00
96, -21943,51, -17822,86, -9973,88, -17330,51, -13116,16, 4923,40, -16479,02, -14946,92, 0,00, 0,00, 0,00
97, -21958,58, -17830,97, -9771,42, -17333,20, -13100,27, 5084,19, -16443,84, -14929,89, 0,00, 0,00, 0,00
98, -21966,67, -17839,84, -9601,55, -17342,70, -13100,94, 5233,97, -16447,73, -14933,36, -0,14, 0,95, 0,26
