%OpenBCI Raw EEG Data
%
%Sample Rate = 250.0 Hz
%First Column = SampleIndex
%Other Columns = EEG data in microvolts followed by Accel Data (in G) interleaved with Aux Data
0, 75712,53, 81461,24, 2308,26, 4845,95, 36943,16, 51772,38, 56388,64, 43705,28, 0,01, 0,85, 0,59
1, 75715,33, 81465,83, 2310,88, 4848,38, 36959,75, 51778,86, 56415,80, 43701,46, 0,00, 0,00, 0,00
2, 75719,17, 81476,17, 2309,74, 4848,00, 36975,91, 51878,96, 56510,19, 43763,98, 0,00, 0,00, 0,00
3, 75718,84, 81475,99, 2310,50, 4845,68, 36973,54, 51916,39, 56533,19, 43796,21, 0,00, 0,00, 0,00
4, 75715,75, 81475,88, 2308,91, 4847,67, 36962,70, 51892,64, 56506,57, 43791,38, 0,00, 0,00, 0,00
5, 75716,45, 81467,10, 2305,25, 4844,70, 36944,39, 51795,09, 56431,02, 43736,68, 0,00, 0,00, 0,00
6, 75717,65, 81464,80, 2300,22, 4837,79, 36950,27, 51802,82, 56452,19, 43737,76, 0,00, 0,00, 0,00
7, 75725,27, 81470,63, 2304,58, 4839,73, 36964,96, 51883,27, 56525,95, 43791,00, 0,01, 0,84, 0,58
8, 75733,32, 81474,63, 2308,40, 4847,56, 36965,61, 51908,66, 56535,83, 43826,92, 0,00, 0,00, 0,00
9, 75731,09, 81470,07, 2321,50, 4862,93, 36960,46, 51854,68, 56481,36, 43795,70, 0,00, 0,00, 0,00
10, 75735,46, 81463,92, 2326,55, 4866,62, 36960,44, 51745,88, 56388,66, 43722,11, 0,00, 0,00, 0,00
11, 75745,90, 81475,33, 2329,83, 4867,99, 36987,84, 51766,88, 56409,48, 43728,82, 0,00, 0,00, 0,00
12, 75755,52, 81491,13, 2345,17, 4885,53, 37014,46, 51854,70, 56485,34, 43778,50, 0,00, 0,00, 0,00
13, 75756,30, 81496,67, 2351,83, 4893,89, 37018,06, 51872,92, 56501,65, 43800,32, 0,00, 0,00, 0,00
14, 75741,52, 81486,19, 2340,29, 4891,08, 36998,59, 51841,56, 56471,32, 43803,18, 0,00, 0,00, 0,00
15, 75722,09, 81464,41, 2333,25, 4888,19, 36976,45, 51717,09, 56376,13, 43730,58, 0,00, 0,00, 0,00
16, 75709,29, 81463,08, 2325,61, 4880,79, 36981,41, 51712,97, 56391,04, 43731,88, 0,01, 0,87, 0,60
17, 75697,02, 81466,00, 2333,28, 4887,68, 36993,88, 51760,34, 56446,29, 43759,33, 0,00, 0,00, 0,00
18, 75686,63, 81456,82, 2324,83, 4877,89, 36979,64, 51738,45, 56428,52, 43758,75, 0,00, 0,00, 0,00
19, 75645,77, 81422,89, 2312,60, 4866,22, 36956,29, 51631,75, 56345,21, 43688,36, 0,00, 0,00, 0,00
20, 75617,13, 81399,10, 2309,23, 4865,89, 36948,68, 51498,95, 56250,49, 43599,78, 0,00, 0,00, 0,00
21, 75632,24, 81424,74, 2324,42, 4887,28, 36981,86, 51502,78, 56285,78, 43593,25, 0,00, 0,00, 0,00
22, 75649,86, 81453,76, 2331,51, 4898,68, 37005,57, 51590,35, 56381,85, 43644,42, 0,00, 0,00, 0,00
23, 75666,58, 81462,16, 2327,87, 4897,58, 36997,90, 51608,05, 56406,91, 43658,86, 0,00, 0,00, 0,00
24, 75675,00, 81460,33, 2332,63, 4903,48, 36986,59, 51559,26, 56376,48, 43620,95, 0,00, 0,00, 0,00
25, 75686,91, 81454,02, 2337,01, 4909,47, 36976,69, 51443,34, 56299,48, 43527,14, 0,00, 0,00, 0,00
26, 75712,46, 81476,80, 2334,51, 4907,33, 36993,19, 51464,69, 56338,82, 43521,50, 0,02, 0,83, 0,61
27, 75727,82, 81502,57, 2331,91, 4903,48, 37009,77, 51560,31, 56429,12, 43570,72, 0,00, 0,00, 0,00
28, 75730,41, 81503,76, 2327,71, 4896,31, 36998,59, 51574,28, 56439,49, 43575,93, 0,00, 0,00, 0,00
29, 75725,83, 81492,70, 2336,43, 4904,67, 36987,57, 51503,67, 56384,98, 43512,39, 0,00, 0,00, 0,00
30, 75738,28, 81491,40, 2338,15, 4905,18, 36983,53, 51407,85, 56308,91, 43441,38, 0,00, 0,00, 0,00
31, 75750,15, 81505,79, 2343,31, 4905,85, 36997,68, 51419,67, 56324,18, 43434,71, 0,00, 0,00, 0,00
32, 75749,66, 81516,43, 2344,76, 4906,16, 37004,23, 51485,10, 56368,32, 43461,80, 0,00, 0,00, 0,00
33, 75743,96, 81507,49, 2349,08, 4910,32, 36999,04, 51474,46, 56339,83, 43451,19, 0,00, 0,00, 0,00
34, 75731,17, 81486,41, 2359,76, 4923,22, 36995,24, 51375,66, 56248,30, 43375,08, 0,00, 0,00, 0,00
35, 75697,11, 81442,00, 2336,52, 4893,49, 36962,92, 51194,34, 56098,00, 43240,72, 0,00, 0,00, 0,00
36, 75660,36, 81423,24, 2314,66, 4868,63, 36958,21, 51137,21, 56066,53, 43181,98, 0,03, 0,85, 0,60
37, 75637,27, 81425,39, 2305,27, 4866,67, 36968,27, 51176,15, 56115,13, 43194,72, 0,00, 0,00, 0,00
38, 75605,13, 81402,03, 2301,63, 4869,95, 36956,69, 51122,98, 56093,38, 43151,38, 0,00, 0,00, 0,00
39, 75587,07, 81384,09, 2307,50, 4877,55, 36952,11, 51020,94, 56044,20, 43074,92, 0,00, 0,00, 0,00
40, 75586,40, 81374,95, 2315,19, 4889,35, 36952,06, 50874,47, 55971,43, 42970,94, 0,00, 0,00, 0,00
41, 75577,48, 81369,16, 2322,46, 4902,43, 36966,61, 50819,80, 55988,86, 42913,98, 0,00, 0,00, 0,00
42, 75539,44, 81334,40, 2319,69, 4901,69, 36963,21, 50797,38, 56019,48, 42867,76, 0,00, 0,00, 0,00
43, 75498,58, 81286,74, 2317,97, 4899,73, 36946,25, 50684,43, 55968,57, 42771,45, 0,00, 0,00, 0,00
44, 75468,38, 81251,96, 2327,46, 4911,17, 36935,68, 50509,62, 55874,73, 42628,17, 0,00, 0,00, 0,00
45, 75467,29, 81232,45, 2330,44, 4912,62, 36927,79, 50306,69, 55757,86, 42461,12, 0,00, 0,00, 0,00
46, 75492,48, 81253,20, 2343,94, 4924,33, 36952,15, 50245,27, 55764,16, 42371,53, 0,04, 0,83, 0,58
47, 75537,63, 81302,14, 2358,22, 4938,15, 36984,78, 50320,93, 55856,32, 42375,69, 0,00, 0,00, 0,00
48, 75576,61, 81337,99, 2375,97, 4957,30, 36995,73, 50339,70, 55882,55, 42343,88, 0,00, 0,00, 0,00
49, 75581,88, 81344,84, 2347,07, 4925,52, 36971,75, 50316,37, 55844,45, 42279,13, 0,00, 0,00, 0,00
50, 75590,11, 81344,92, 2323,31, 4893,20, 36950,54, 50255,28, 55772,23, 42191,73, 0,00, 0,00, 0,00
51, 75625,98, 81387,80, 2308,58, 4875,85, 36960,15, 50345,98, 55833,74, 42212,32, 0,00, 0,00, 0,00
52, 75655,35, 81441,59, 2308,53, 4876,12, 36976,09, 50523,23, 55959,76, 42293,95, 0,00, 0,00, 0,00
53, 75663,05, 81462,36, 2303,48, 4866,33, 36970,43, 50615,48, 56013,85, 42333,27, 0,00, 0,00, 0,00
54, 75666,48, 81466,48, 2294,52, 4860,12, 36950,20, 50635,57, 56015,62, 42329,11, 0,00, 0,00, 0,00
55, 75683,59, 81483,91, 2308,00, 4882,16, 36953,45, 50609,45, 56000,93, 42300,65, 0,00, 0,00, 0,00
56, 75694,91, 81512,18, 2319,40, 4891,34, 36985,34, 50687,92, 56092,30, 42328,14, 0,03, 0,86, 0,57
57, 75705,24, 81537,71, 2301,98, 4873,91, 36988,27, 50861,97, 56238,73, 42435,46, 0,00, 0,00, 0,00
58, 75697,45, 81534,80, 2305,56, 4885,04, 36975,51, 50935,02, 56303,02, 42486,93, 0,00, 0,00, 0,00
59, 75696,21, 81521,52, 2318,73, 4897,42, 36977,03, 50936,25, 56310,77, 42486,95, 0,00, 0,00, 0,00
60, 75701,63, 81503,42, 2318,77, 4902,90, 36968,87, 50887,03, 56272,39, 42456,55, 0,00, 0,00, 0,00
61, 75714,99, 81520,01, 2333,66, 4923,37, 36989,10, 50931,62, 56315,80, 42472,63, 0,00, 0,00, 0,00
62, 75740,36, 81556,06, 2341,08, 4933,90, 37013,21, 51088,62, 56429,91, 42574,73, 0,00, 0,00, 0,00
63, 75729,74, 81548,08, 2335,91, 4929,86, 37002,24, 51154,00, 56452,43, 42634,03, 0,00, 0,00, 0,00
64, 75704,28, 81528,19, 2325,05, 4917,14, 36980,67, 51139,71, 56408,16, 42644,96, 0,00, 0,00, 0,00
65, 75689,62, 81506,44, 2329,70, 4921,85, 36965,89, 51055,90, 56308,27, 42596,86, 0,00, 0,00, 0,00
66, 75689,44, 81514,22, 2322,55, 4908,91, 36985,45, 51116,40, 56331,13, 42643,80, 0,07, 0,89, 0,58
67, 75684,62, 81528,90, 2324,34, 4907,35, 36995,11, 51235,65, 56399,06, 42728,31, 0,00, 0,00, 0,00
68, 75664,03, 81509,14, 2326,41, 4909,74, 36986,84, 51270,30, 56408,16, 42763,18, 0,00, 0,00, 0,00
69, 75646,26, 81485,38, 2322,46, 4907,35, 36982,59, 51263,61, 56381,02, 42785,08, 0,00, 0,00, 0,00
70, 75617,54, 81450,55, 2308,89, 4892,04, 36961,02, 51174,38, 56281,31, 42745,74, 0,00, 0,00, 0,00
71, 75604,48, 81443,45, 2299,84, 4881,51, 36968,73, 51195,77, 56286,03, 42760,59, 0,00, 0,00, 0,00
72, 75603,84, 81454,47, 2297,25, 4882,63, 36977,99, 51315,11, 56366,05, 42850,73, 0,00, 0,00, 0,00
73, 75597,58, 81449,71, 2310,12, 4897,74, 36977,90, 51361,49, 56395,21, 42902,81, 0,00, 0,00, 0,00
74, 75586,24, 81435,92, 2315,37, 4909,85, 36974,50, 51341,80, 56376,44, 42908,91, 0,00, 0,00, 0,00
75, 75591,49, 81430,80, 2322,75, 4929,43, 36974,23, 51278,57, 56329,86, 42888,66, 0,00, 0,00, 0,00
76, 75605,80, 81453,20, 2333,41, 4944,05, 37001,01, 51333,13, 56387,39, 42925,50, 0,07, 0,89, 0,59
77, 75603,61, 81463,23, 2325,83, 4934,44, 37008,03, 51455,37, 56476,71, 42999,75, 0,00, 0,00, 0,00
78, 75590,67, 81450,52, 2307,66, 4919,91, 36990,84, 51512,57, 56502,21, 43057,53, 0,00, 0,00, 0,00
79, 75576,23, 81427,80, 2304,29, 4919,22, 36975,44, 51486,48, 56458,07, 43058,71, 0,00, 0,00, 0,00
80, 75554,28, 81394,01, 2296,13, 4908,44, 36951,05, 51363,46, 56335,09, 42972,14, 0,00, 0,00, 0,00
81, 75550,75, 81406,68, 2286,72, 4896,13, 36968,11, 51386,19, 56347,02, 42975,43, 0,00, 0,00, 0,00
82, 75559,27, 81434,27, 2282,36, 4892,98, 36982,39, 51515,92, 56440,23, 43065,91, 0,00, 0,00, 0,00
83, 75560,65, 81438,00, 2290,74, 4904,13, 36982,93, 51560,64, 56463,77, 43110,72, 0,00, 0,00, 0,00
84, 75553,97, 81426,91, 2288,55, 4902,16, 36972,64, 51543,95, 56439,92, 43123,18, 0,00, 0,00, 0,00
85, 75533,78, 81392,84, 2278,76, 4890,81, 36944,66, 51431,34, 56353,28, 43050,09, 0,08, 0,86, 0,60
86, 75538,48, 81401,70, 2262,62, 4874,40, 36955,52, 51473,38, 56413,07, 43081,58, 0,00, 0,00, 0,00
87, 75546,79, 81421,95, 2244,38, 4859,65, 36957,58, 51611,43, 56542,85, 43193,16, 0,00, 0,00, 0,00
88, 75550,70, 81433,73, 2265,77, 4885,38, 36964,49, 51651,75, 56598,37, 43248,72, 0,00, 0,00, 0,00
89, 75543,55, 81428,32, 2282,58, 4903,95, 36962,25, 51610,80, 56585,65, 43240,81, 0,00, 0,00, 0,00
90, 75528,73, 81405,43, 2270,74, 4889,51, 36947,21, 51510,78, 56519,45, 43192,11, 0,00, 0,00, 0,00
91, 75528,24, 81422,24, 2269,71, 4889,96, 36963,37, 51525,22, 56548,04, 43208,45, 0,00, 0,00, 0,00
92, 75528,17, 81440,32, 2253,12, 4867,92, 36966,59, 51647,75, 56629,28, 43306,88, 0,00, 0,00, 0,00
93, 75504,39, 81416,00, 2233,79, 4849,97, 36936,91, 51672,65, 56607,55, 43349,06, 0,00, 0,00, 0,00
94, 75473,14, 81385,42, 2219,89, 4837,90, 36909,66, 51609,42, 56514,89, 43323,49, 0,00, 0,00, 0,00
95, 75466,08, 81367,19, 2223,62, 4843,76, 36901,59, 51486,64, 56395,86, 43256,61, 0,08, 0,84, 0,60
96, 75485,99, 81388,24, 2222,90, 4841,50, 36925,91, 51510,89, 56400,80, 43284,11, 0,00, 0,00, 0,00
97, 75508,51, 81421,13, 2223,53, 4840,67, 36937,20, 51635,28, 56466,67, 43384,49, 0,00, 0,00, 0,00
98, 75509,27, 81418,98, 2229,56, 4846,95, 36928,12, 51656,24, 56454,94, 43422,02, 0,00, 0,00, 0,00
99, 75486,73, 81384,89, 2213,60, 4834,53, 36900,14, 51588,99, 56379,93, 43390,57, 0,00, 0,00, 0,00
100, 75453,14, 81331,70, 2161,50, 4784,03, 36848,86, 51470,03, 56268,12, 43330,71, 0,00, 0,00, 0,00
101, 75448,45, 81329,23, 2143,85, 4758,40, 36844,77, 51490,84, 56291,04, 43361,80, 0,00, 0,00, 0,00
102, 75461,34, 81349,66, 2154,48, 4759,04, 36859,93, 51599,29, 56384,35, 43450,07, 0,00, 0,00, 0,00
103, 75446,03, 81334,33, 2155,80, 4755,76, 36852,53, 51618,89, 56400,78, 43483,95, 0,00, 0,00, 0,00
104, 75421,00, 81311,42, 2145,52, 4746,57, 36832,72, 51579,93, 56374,36, 43492,80, 0,00, 0,00, 0,00
105, 75392,09, 81281,65, 2140,76, 4742,17, 36814,17, 51467,59, 56299,26, 43443,88, 0,10, 0,85, 0,61
106, 75380,41, 81288,91, 2136,36, 4733,72, 36831,29, 51485,97, 56335,16, 43468,42, 0,00, 0,00, 0,00
107, 75360,89, 81292,46, 2121,92, 4714,52, 36835,14, 51596,45, 56416,65, 43558,83, 0,00, 0,00, 0,00
108, 75331,66, 81277,55, 2126,28, 4723,28, 36829,48, 51625,11, 56425,70, 43603,13, 0,00, 0,00, 0,00
109, 75311,98, 81266,00, 2139,26, 4741,54, 36836,37, 51593,46, 56395,28, 43604,90, 0,00, 0,00, 0,00
110, 75306,98, 81253,35, 2142,57, 4744,40, 36840,05, 51513,55, 56339,56, 43575,98, 0,00, 0,00, 0,00
111, 75303,90, 81258,06, 2117,54, 4715,70, 36842,36, 51568,78, 56384,64, 43636,50, 0,00, 0,00, 0,00
112, 75284,85, 81244,41, 2093,20, 4686,76, 36820,56, 51674,15, 56450,89, 43718,80, 0,00, 0,00, 0,00
113, 75267,80, 81215,59, 2102,16, 4693,15, 36806,97, 51672,29, 56449,66, 43725,57, 0,00, 0,00, 0,00
114, 75276,91, 81204,02, 2107,79, 4701,31, 36808,65, 51659,42, 56449,02, 43745,00, 0,00, 0,00, 0,00
115, 75297,80, 81204,51, 2119,46, 4717,58, 36810,44, 51586,86, 56410,79, 43718,34, 0,09, 0,81, 0,60
116, 75316,57, 81228,09, 2110,12, 4706,76, 36819,94, 51635,34, 56467,99, 43759,44, 0,00, 0,00, 0,00
117, 75332,77, 81253,28, 2104,42, 4701,04, 36826,09, 51765,88, 56567,17, 43854,25, 0,00, 0,00, 0,00
118, 75322,47, 81240,54, 2096,75, 4694,60, 36807,15, 51806,49, 56575,21, 43893,66, 0,00, 0,00, 0,00
119, 75315,38, 81225,37, 2095,72, 4696,64, 36796,47, 51783,02, 56532,54, 43890,13, 0,00, 0,00, 0,00
120, 75327,52, 81222,48, 2106,07, 4707,19, 36797,88, 51709,15, 56457,91, 43855,13, 0,00, 0,00, 0,00
121, 75355,15, 81256,66, 2117,31, 4718,19, 36831,05, 51762,82, 56490,19, 43902,51, 0,00, 0,00, 0,00
122, 75392,12, 81309,41, 2150,95, 4756,16, 36875,55, 51900,28, 56576,20, 44005,98, 0,00, 0,00, 0,00
123, 75407,27, 81331,13, 2173,44, 4780,77, 36891,24, 51949,12, 56584,00, 44058,33, 0,00, 0,00, 0,00
124, 75390,38, 81313,23, 2157,48, 4761,77, 36866,70, 51917,76, 56523,96, 44060,27, 0,00, 0,00, 0,00
125, 75372,09, 81279,14, 2146,95, 4747,24, 36840,14, 51806,67, 56417,99, 44002,04, 0,09, 0,81, 0,59
126, 75372,52, 81279,61, 2137,14, 4731,93, 36843,12, 51819,59, 56427,51, 44023,05, 0,00, 0,00, 0,00
127, 75374,20, 81296,42, 2137,34, 4728,58, 36844,79, 51917,63, 56498,70, 44107,86, 0,00, 0,00, 0,00
128, 75365,61, 81293,27, 2156,34, 4751,00, 36847,16, 51913,29, 56504,74, 44125,23, 0,00, 0,00, 0,00
129, 75356,04, 81276,28, 2155,47, 4754,19, 36840,59, 51853,05, 56475,23, 44107,01, 0,00, 0,00, 0,00
130, 75349,92, 81253,75, 2142,37, 4741,21, 36820,07, 51747,48, 56415,31, 44062,37, 0,00, 0,00, 0,00
131, 75365,12, 81276,15, 2135,80, 4735,13, 36834,24, 51781,01, 56467,77, 44108,44, 0,00, 0,00, 0,00
132, 75394,73, 81316,90, 2147,69, 4748,45, 36860,77, 51902,52, 56569,74, 44222,99, 0,00, 0,00, 0,00
133, 75397,64, 81317,52, 2152,36, 4754,53, 36858,79, 51919,66, 56573,76, 44262,51, 0,00, 0,00, 0,00
134, 75402,73, 81318,57, 2156,18, 4756,43, 36856,59, 51902,00, 56547,50, 44283,39, 0,00, 0,00, 0,00
135, 75424,51, 81322,04, 2158,87, 4759,16, 36852,88, 51854,93, 56498,37, 44286,25, 0,08, 0,82, 0,58
136, 75440,35, 81339,31, 2180,37, 4782,00, 36878,79, 51872,25, 56507,00, 44309,38, 0,00, 0,00, 0,00
137, 75451,22, 81360,52, 2195,81, 4797,09, 36907,67, 51948,02, 56561,51, 44376,88, 0,00, 0,00, 0,00
138, 75454,52, 81361,30, 2209,20, 4814,79, 36917,77, 51945,61, 56559,21, 44403,75, 0,00, 0,00, 0,00
139, 75448,84, 81350,31, 2211,66, 4818,43, 36911,04, 51892,12, 56514,06, 44398,48, 0,00, 0,00, 0,00
140, 75420,35, 81307,17, 2193,67, 4797,82, 36879,39, 51758,01, 56410,39, 44323,87, 0,00, 0,00, 0,00
141, 75423,23, 81309,14, 2199,72, 4804,64, 36894,88, 51751,86, 56424,70, 44331,11, 0,00, 0,00, 0,00
142, 75430,95, 81328,18, 2210,57, 4818,81, 36918,44, 51824,02, 56493,74, 44387,86, 0,00, 0,00, 0,00
143, 75423,70, 81319,78, 2206,77, 4817,99, 36907,36, 51829,36, 56499,31, 44403,75, 0,00, 0,00, 0,00
144, 75416,66, 81309,48, 2216,24, 4829,45, 36897,68, 51782,53, 56472,78, 44381,69, 0,00, 0,00, 0,00
145, 75447,66, 81330,02, 2256,95, 4877,80, 36924,43, 51695,18, 56438,00, 44327,53, 0,07, 0,84, 0,57
146, 75479,40, 81369,76, 2277,96, 4906,01, 36952,84, 51723,90, 56481,07, 44351,98, 0,00, 0,00, 0,00
147, 75450,79, 81353,95, 2258,38, 4887,45, 36932,61, 51754,93, 56486,79, 44359,72, 0,00, 0,00, 0,00
148, 75389,10, 81291,66, 2218,05, 4843,15, 36886,77, 51694,20, 56407,08, 44306,99, 0,00, 0,00, 0,00
149, 75382,46, 81279,79, 2228,98, 4852,72, 36889,27, 51630,25, 56347,94, 44270,67, 0,00, 0,00, 0,00
150, 75390,29, 81276,70, 2245,43, 4871,18, 36896,31, 51516,84, 56269,06, 44190,20, 0,00, 0,00, 0,00
151, 75410,00, 81304,78, 2261,73, 4886,11, 36929,91, 51531,14, 56294,83, 44181,48, 0,00, 0,00, 0,00
152, 75427,88, 81336,79, 2267,65, 4892,48, 36948,57, 51622,38, 56363,72, 44228,71, 0,00, 0,00, 0,00
153, 75427,26, 81343,25, 2269,33, 4893,18, 36946,96, 51636,39, 56373,46, 44233,07, 0,00, 0,00, 0,00
154, 75429,40, 81342,20, 2261,57, 4882,43, 36939,41, 51623,99, 56373,36, 44240,88, 0,00, 0,00, 0,00
155, 75432,64, 81332,88, 2266,29, 4880,41, 36930,47, 51546,61, 56340,32, 44193,71, 0,09, 0,86, 0,55
156, 75443,80, 81352,13, 2273,55, 4880,06, 36947,63, 51562,10, 56386,21, 44187,86, 0,00, 0,00, 0,00
157, 75459,40, 81381,27, 2280,79, 4892,53, 36961,13, 51676,58, 56484,80, 44264,01, 0,00, 0,00, 0,00
158, 75457,48, 81375,79, 2286,43, 4905,56, 36952,66, 51698,49, 56502,82, 44269,91, 0,00, 0,00, 0,00
159, 75474,53, 81383,33, 2294,34, 4917,85, 36955,50, 51703,67, 56510,68, 44275,90, 0,00, 0,00, 0,00
160, 75507,50, 81402,50, 2319,53, 4948,30, 36967,55, 51666,59, 56498,82, 44253,12, 0,00, 0,00, 0,00
161, 75502,49, 81406,19, 2308,82, 4942,80, 36967,28, 51695,92, 56523,80, 44254,29, 0,00, 0,00, 0,00
162, 75464,72, 81381,23, 2276,88, 4913,58, 36938,04, 51750,99, 56547,21, 44272,12, 0,00, 0,00, 0,00
163, 75439,95, 81362,05, 2271,29, 4912,56, 36924,23, 51750,84, 56537,66, 44264,70, 0,00, 0,00, 0,00
164, 75441,90, 81366,88, 2286,36, 4934,77, 36928,28, 51721,69, 56515,91, 44241,88, 0,05, 0,84, 0,53
165, 75441,98, 81359,32, 2278,04, 4924,51, 36919,71, 51646,30, 56466,94, 44189,15, 0,00, 0,00, 0,00
166, 75440,06, 81366,54, 2270,09, 4917,83, 36930,07, 51666,39, 56490,86, 44194,25, 0,00, 0,00, 0,00
167, 75444,65, 81386,07, 2278,38, 4943,40, 36946,11, 51740,33, 56543,83, 44235,20, 0,00, 0,00, 0,00
168, 75443,98, 81384,02, 2278,25, 4952,41, 36940,13, 51740,55, 56549,91, 44234,59, 0,00, 0,00, 0,00
169, 75457,66, 81391,05, 2284,30, 4958,87, 36939,65, 51716,82, 56561,91, 44223,28, 0,00, 0,00, 0,00
170, 75474,64, 81401,61, 2292,26, 4966,24, 36941,15, 51653,63, 56549,98, 44178,67, 0,00, 0,00, 0,00
171, 75474,98, 81423,24, 2300,96, 4976,71, 36955,48, 51658,34, 56583,89, 44171,54, 0,00, 0,00, 0,00
172, 75475,65, 81437,88, 2296,49, 4975,12, 36960,17, 51720,91, 56622,33, 44208,89, 0,00, 0,00, 0,00
173, 75473,77, 81427,55, 2303,64, 4985,69, 36956,02, 51708,70, 56599,09, 44202,96, 0,00, 0,00, 0,00
174, 75471,52, 81418,15, 2313,09, 4994,43, 36953,64, 51662,88, 56556,13, 44177,51, 0,03, 0,87, 0,49
175, 75483,09, 81417,70, 2323,73, 5003,13, 36956,71, 51596,41, 56501,05, 44139,17, 0,00, 0,00, 0,00
176, 75494,98, 81445,38, 2333,63, 5011,66, 36982,10, 51628,82, 56518,95, 44162,55, 0,00, 0,00, 0,00
177, 75487,78, 81454,34, 2337,30, 5011,69, 36985,30, 51690,15, 56545,71, 44209,56, 0,00, 0,00, 0,00
178, 75457,84, 81422,06, 2344,65, 5014,66, 36979,60, 51665,86, 56515,13, 44192,26, 0,00, 0,00, 0,00
179, 75434,30, 81397,18, 2353,73, 5021,65, 36982,12, 51616,01, 56481,47, 44167,54, 0,00, 0,00, 0,00
180, 75433,31, 81372,22, 2350,49, 5015,19, 36982,32, 51547,52, 56454,09, 44128,45, 0,00, 0,00, 0,00
181, 75426,72, 81351,98, 2340,29, 4999,21, 36985,30, 51581,32, 56507,46, 44156,50, 0,00, 0,00, 0,00
182, 75394,35, 81326,91, 2344,16, 4999,57, 36988,22, 51635,97, 56572,78, 44184,57, 0,00, 0,00, 0,00
183, 75357,92, 81293,78, 2346,80, 4999,86, 36985,90, 51634,54, 56601,79, 44179,32, 0,00, 0,00, 0,00
184, 75305,84, 81248,99, 2351,40, 5005,11, 36986,55, 51575,60, 56599,49, 44135,48, -0,01, 0,92, 0,46
185, 75245,20, 81199,48, 2344,50, 4997,31, 36980,65, 51482,86, 56575,13, 44063,76, 0,00, 0,00, 0,00
186, 75195,65, 81169,38, 2337,01, 4988,22, 36988,80, 51517,33, 56635,86, 44071,31, 0,00, 0,00, 0,00
187, 75133,40, 81118,41, 2336,16, 4986,74, 36989,10, 51587,76, 56697,34, 44092,86, 0,00, 0,00, 0,00
188, 75063,19, 81049,97, 2336,00, 4985,00, 36984,22, 51594,60, 56706,02, 44074,82, 0,00, 0,00, 0,00
189, 75003,09, 80982,38, 2327,62, 4972,46, 36975,57, 51553,94, 56683,17, 44031,01, 0,00, 0,00, 0,00
190, 74943,90, 80925,74, 2308,49, 4958,91, 36966,39, 51494,04, 56650,98, 43972,05, 0,00, 0,00, 0,00
191, 74865,55, 80877,84, 2296,04, 4947,54, 36973,72, 51518,47, 56670,81, 43936,58, 0,00, 0,00, 0,00
192, 74803,44, 80851,46, 2277,04, 4927,24, 36976,33, 51623,09, 56728,88, 43939,68, 0,00, 0,00, 0,00
193, 74743,02, 80834,27, 2268,75, 4925,61, 36971,82, 51675,13, 56757,63, 43893,75, 0,00, 0,00, 0,00
194, 74686,72, 80824,60, 2267,56, 4925,94, 36968,31, 51655,73, 56755,17, 43790,69, -0,08, 0,93, 0,41
195, 74628,12, 80820,95, 2266,15, 4923,04, 36964,24, 51610,15, 56747,25, 43676,85, 0,00, 0,00, 0,00
196, 74557,86, 80812,02, 2267,94, 4918,41, 36972,64, 51633,60, 56789,97, 43618,22, 0,00, 0,00, 0,00
197, 74490,29, 80791,56, 2258,98, 4908,20, 36974,59, 51712,41, 56857,72, 43621,71, 0,00, 0,00, 0,00
198, 74426,26, 80756,13, 2255,87, 4905,96, 36967,17, 51726,14, 56883,45, 43589,70, 0,00, 0,00, 0,00
199, 74364,43, 80718,20, 2261,80, 4908,67, 36966,27, 51705,93, 56886,71, 43534,91, 0,00, 0,00, 0,00
200, 74298,20, 80653,49, 2260,07, 4901,94, 36952,26, 51633,82, 56851,50, 43427,29, 0,00, 0,00, 0,00
201, 74233,65, 80606,38, 2251,49, 4887,61, 36947,61, 51644,00, 56867,62, 43362,18, 0,00, 0,00, 0,00
202, 74162,66, 80569,77, 2234,37, 4865,93, 36939,63, 51720,28, 56913,26, 43343,27, 0,00, 0,00, 0,00
203, 74103,81, 80521,95, 2239,15, 4864,99, 36936,59, 51721,04, 56912,88, 43285,80, 0,00, 0,00, 0,00
204, 74083,91, 80477,54, 2233,99, 4855,20, 36929,51, 51697,86, 56882,71, 43209,68, -0,11, 0,89, 0,35
205, 74087,52, 80451,55, 2226,46, 4843,24, 36930,00, 51675,36, 56847,03, 43131,63, 0,00, 0,00, 0,00
206, 74069,43, 80453,24, 2212,22, 4818,23, 36933,62, 51734,23, 56853,89, 43116,71, 0,00, 0,00, 0,00
207, 74001,46, 80428,86, 2200,51, 4797,04, 36926,20, 51800,86, 56837,49, 43112,73, 0,00, 0,00, 0,00
208, 73914,47, 80365,54, 2198,76, 4790,16, 36910,42, 51752,91, 56747,90, 43034,89, 0,00, 0,00, 0,00
209, 73841,76, 80305,10, 2191,41, 4777,31, 36899,18, 51650,70, 56638,34, 42925,65, 0,00, 0,00, 0,00
210, 73812,41, 80276,02, 2189,73, 4765,91, 36898,32, 51534,61, 56540,05, 42804,84, 0,00, 0,00, 0,00
211, 73794,80, 80282,05, 2187,43, 4743,40, 36906,68, 51524,75, 56510,28, 42749,86, 0,00, 0,00, 0,00
212, 73748,95, 80261,16, 2189,33, 4725,00, 36905,77, 51522,45, 56480,42, 42687,11, 0,00, 0,00, 0,00
213, 73709,08, 80224,27, 2190,49, 4713,09, 36902,98, 51454,12, 56428,56, 42586,09, 0,00, 0,00, 0,00
214, 73683,93, 80186,41, 2186,51, 4711,43, 36902,01, 51356,35, 56375,79, 42466,66, -0,11, 0,91, 0,29
215, 73665,76, 80148,37, 2182,94, 4719,28, 36912,16, 51227,31, 56327,69, 42311,02, 0,00, 0,00, 0,00
216, 73650,07, 80152,86, 2179,97, 4728,62, 36935,96, 51215,27, 56359,86, 42227,76, 0,00, 0,00, 0,00
217, 73648,41, 80190,79, 2170,67, 4735,51, 36955,66, 51301,72, 56444,32, 42191,66, 0,00, 0,00, 0,00
218, 73677,29, 80259,26, 2141,03, 4723,64, 36973,18, 51460,17, 56577,70, 42222,64, 0,00, 0,00, 0,00
219, 73692,31, 80309,91, 2113,96, 4719,37, 36978,41, 51612,95, 56691,98, 42246,79, 0,00, 0,00, 0,00
220, 73682,68, 80314,45, 2095,01, 4729,65, 36983,39, 51675,18, 56737,53, 42192,74, 0,00, 0,00, 0,00
221, 73645,77, 80310,38, 2056,76, 4727,75, 36986,41, 51788,05, 56786,68, 42167,50, 0,00, 0,00, 0,00
222, 73591,40, 80305,41, 2023,70, 4740,38, 36986,46, 51910,81, 56813,13, 42134,67, 0,00, 0,00, 0,00
223, 73545,91, 80293,61, 1986,87, 4743,64, 36988,22, 51992,77, 56813,55, 42075,32, 0,00, 0,00, 0,00
224, 73500,78, 80276,71, 1931,64, 4723,50, 36988,67, 52085,98, 56825,48, 42024,47, -0,12, 0,96, 0,24
225, 73458,73, 80261,49, 1905,93, 4728,09, 37005,50, 52134,48, 56839,10, 41927,04, 0,00, 0,00, 0,00
226, 73417,48, 80291,35, 1874,44, 4719,32, 37027,77, 52264,64, 56891,98, 41881,82, 0,00, 0,00, 0,00
227, 73362,24, 80312,56, 1824,15, 4685,51, 37025,60, 52455,47, 56941,52, 41889,94, 0,00, 0,00, 0,00
228, 73287,08, 80298,28, 1787,04, 4662,55, 37013,93, 52570,00, 56936,46, 41839,52, 0,00, 0,00, 0,00
229, 73220,85, 80298,13, 1760,38, 4653,30, 37023,32, 52673,16, 56936,08, 41781,18, 0,00, 0,00, 0,00
230, 73164,86, 80330,87, 1744,64, 4650,73, 37043,68, 52775,20, 56956,89, 41743,31, 0,00, 0,00, 0,00
231, 73100,95, 80395,40, 1730,99, 4640,13, 37055,97, 52930,63, 56987,36, 41753,53, 0,00, 0,00, 0,00
232, 73024,33, 80467,10, 1715,41, 4621,98, 37059,66, 53110,47, 57008,70, 41797,16, 0,00, 0,00, 0,00
233, 72957,37, 80510,31, 1698,87, 4598,33, 37053,85, 53237,59, 57013,98, 41826,10, -0,10, 1,02, 0,23
234, 72930,48, 80540,91, 1698,26, 4586,11, 37049,38, 53316,15, 57025,07, 41844,95, 0,00, 0,00, 0,00
235, 72923,70, 80579,35, 1687,69, 4558,88, 37049,16, 53364,43, 57078,51, 41881,67, 0,00, 0,00, 0,00
236, 72920,04, 80649,74, 1679,13, 4543,73, 37053,89, 53493,60, 57191,54, 41984,00, 0,00, 0,00, 0,00
237, 72919,13, 80694,84, 1677,21, 4539,71, 37065,20, 53659,47, 57308,60, 42110,42, 0,00, 0,00, 0,00
238, 72943,33, 80678,80, 1673,54, 4535,08, 37066,63, 53786,03, 57393,98, 42211,47, 0,00, 0,00, 0,00
239, 72957,23, 80621,91, 1669,65, 4526,52, 37067,15, 53881,71, 57453,35, 42280,20, 0,00, 0,00, 0,00
240, 72948,94, 80554,59, 1670,32, 4520,10, 37077,36, 53957,51, 57502,68, 42324,08, 0,00, 0,00, 0,00
241, 72941,38, 80541,27, 1668,80, 4512,03, 37096,25, 54089,63, 57562,98, 42401,77, 0,00, 0,00, 0,00
242, 72932,29, 80529,78, 1667,86, 4504,37, 37113,26, 54257,72, 57608,94, 42515,03, 0,00, 0,00, 0,00
243, 72900,46, 80482,73, 1674,46, 4502,69, 37118,27, 54363,20, 57592,64, 42565,14, -0,02, 0,99, 0,22
244, 72882,98, 80452,13, 1691,49, 4505,42, 37129,29, 54444,71, 57562,36, 42586,96, 0,00, 0,00, 0,00
245, 72868,72, 80423,83, 1699,43, 4495,34, 37143,55, 54526,59, 57544,61, 42610,00, 0,00, 0,00, 0,00
246, 72852,58, 80427,97, 1702,71, 4483,18, 37154,41, 54679,07, 57518,66, 42669,95, 0,00, 0,00, 0,00
247, 72829,71, 80423,74, 1707,63, 4465,48, 37155,24, 54861,59, 57462,96, 42736,40, 0,00, 0,00, 0,00
248, 72831,16, 80399,06, 1739,75, 4471,02, 37181,16, 55003,04, 57414,05, 42765,73, 0,00, 0,00, 0,00
249, 72821,38, 80357,00, 1751,64, 4448,78, 37197,79, 55127,38, 57379,14, 42793,00, 0,00, 0,00, 0,00
250, 72790,98, 80296,59, 1744,51, 4400,39, 37186,04, 55179,84, 57322,70, 42769,08, 0,00, 0,00, 0,00
251, 72772,23, 80282,39, 1742,07, 4366,82, 37180,94, 55306,35, 57307,57, 42791,16, 0,00, 0,00, 0,00
252, 72740,53, 80272,40, 1751,21, 4356,20, 37177,84, 55453,45, 57296,93, 42807,86, 0,00, 0,00, 0,00
253, 72714,98, 80250,31, 1757,34, 4347,73, 37175,26, 55563,21, 57300,21, 42823,66, 0,00, 1,00, 0,23
254, 72670,68, 80195,66, 1767,22, 4350,77, 37164,58, 55589,68, 57282,98, 42801,38, 0,00, 0,00, 0,00
255, 72639,50, 80140,91, 1768,43, 4356,82, 37154,77, 55553,31, 57263,47, 42742,99, 0,00, 0,00, 0,00
0, 72625,53, 80138,51, 1766,32, 4355,98, 37152,64, 55596,86, 57276,03, 42743,75, 0,00, 0,00, 0,00
1, 72598,89, 80134,76, 1777,95, 4363,98, 37147,70, 55636,51, 57266,60, 42726,32, 0,00, 0,00, 0,00
2, 72581,74, 80109,37, 1790,20, 4370,44, 37147,61, 55623,07, 57239,64, 42675,13, 0,00, 0,00, 0,00
3, 72575,73, 80074,34, 1796,21, 4373,70, 37151,21, 55575,00, 57200,14, 42600,14, 0,00, 0,00, 0,00
4, 72573,72, 80037,66, 1795,25, 4368,31, 37154,70, 55521,51, 57170,04, 42521,67, 0,00, 0,00, 0,00
5, 72583,40, 80048,10, 1794,40, 4358,75, 37155,97, 55536,30, 57143,33, 42482,91, 0,00, 0,00, 0,00
6, 72578,77, 80061,29, 1803,50, 4358,08, 37157,67, 55562,93, 57081,61, 42441,25, 0,00, 0,00, 0,00
7, 72573,70, 80053,13, 1820,35, 4371,69, 37166,79, 55539,86, 57007,63, 42370,61, 0,00, 1,01, 0,24
8, 72564,76, 80027,96, 1839,57, 4388,45, 37175,04, 55474,08, 56923,14, 42266,41, 0,00, 0,00, 0,00
9, 72559,19, 80009,16, 1841,69, 4384,58, 37186,11, 55427,92, 56873,43, 42181,12, 0,00, 0,00, 0,00
10, 72554,19, 80026,02, 1841,43, 4378,84, 37184,90, 55441,04, 56831,07, 42123,34, 0,00, 0,00, 0,00
11, 72550,38, 80042,48, 1843,26, 4377,12, 37183,42, 55487,89, 56795,85, 42088,96, 0,00, 0,00, 0,00
12, 72525,73, 80023,06, 1842,30, 4375,78, 37171,64, 55481,03, 56750,14, 42018,17, 0,00, 0,00, 0,00
13, 72522,11, 80017,92, 1851,75, 4382,15, 37172,76, 55472,31, 56744,84, 41936,92, 0,00, 0,00, 0,00
14, 72516,34, 80020,20, 1851,71, 4376,00, 37178,08, 55498,69, 56793,84, 41865,78, 0,00, 0,00, 0,00
15, 72517,30, 80063,92, 1840,42, 4354,43, 37171,89, 55583,82, 56848,75, 41829,72, 0,00, 0,00, 0,00
16, 72520,59, 80108,16, 1830,47, 4333,11, 37167,75, 55717,51, 56905,62, 41844,68, 0,00, 0,00, 0,00
17, 72513,48, 80113,77, 1837,00, 4323,97, 37170,55, 55815,68, 56958,66, 41850,58, 0,02, 1,00, 0,23
18, 72530,85, 80106,46, 1850,68, 4320,93, 37173,95, 55859,46, 56988,88, 41818,53, 0,00, 0,00, 0,00
19, 72610,06, 80094,50, 1866,62, 4322,85, 37200,48, 55886,64, 57033,87, 41771,07, 0,00, 0,00, 0,00
20, 72726,78, 80128,25, 1866,28, 4315,36, 37223,68, 56006,05, 57086,55, 41792,80, 0,00, 0,00, 0,00
21, 72796,70, 80157,96, 1869,79, 4312,57, 37233,11, 56124,18, 57099,96, 41816,31, 0,00, 0,00, 0,00
22, 72820,05, 80149,42, 1875,04, 4310,62, 37242,09, 56207,39, 57096,61, 41804,78, 0,00, 0,00, 0,00
23, 72831,86, 80150,70, 1877,19, 4309,77, 37263,84, 56323,40, 57120,95, 41833,34, 0,00, 0,00, 0,00
24, 72823,88, 80136,59, 1865,52, 4296,70, 37272,56, 56441,95, 57153,77, 41917,66, 0,00, 0,00, 0,00
25, 72822,65, 80150,20, 1854,93, 4280,11, 37271,18, 56585,32, 57175,29, 42024,54, 0,00, 0,00, 0,00
26, 72810,70, 80167,23, 1849,41, 4267,15, 37270,21, 56735,50, 57186,36, 42160,30, 0,00, 0,00, 0,00
27, 72773,50, 80133,95, 1844,42, 4255,91, 37261,34, 56829,62, 57184,16, 42224,97, -0,01, 0,96, 0,22
28, 72727,45, 80066,02, 1838,88, 4244,73, 37244,33, 56852,24, 57152,34, 42217,73, 0,00, 0,00, 0,00
29, 72699,49, 79998,14, 1839,70, 4243,48, 37247,32, 56817,62, 57131,01, 42179,30, 0,00, 0,00, 0,00
30, 72682,75, 79974,34, 1826,23, 4238,72, 37253,41, 56825,00, 57111,45, 42166,34, 0,00, 0,00, 0,00
31, 72666,81, 79970,20, 1810,07, 4236,68, 37256,51, 56866,34, 57091,29, 42157,98, 0,00, 0,00, 0,00
32, 72649,52, 79954,45, 1780,34, 4233,40, 37258,64, 56921,29, 57096,30, 42144,79, 0,00, 0,00, 0,00
33, 72623,84, 79917,34, 1717,96, 4203,76, 37248,18, 56945,52, 57085,71, 42063,66, 0,00, 0,00, 0,00
34, 72633,65, 79912,36, 1710,11, 4184,56, 37257,50, 57009,11, 57113,18, 41975,86, 0,00, 0,00, 0,00
35, 72675,60, 79977,02, 1759,86, 4220,88, 37291,40, 57147,55, 57161,81, 41910,95, 0,00, 0,00, 0,00
36, 72669,63, 79987,41, 1758,01, 4227,90, 37271,64, 57240,85, 57131,14, 41802,30, 0,00, 0,00, 0,00
37, 72673,25, 79906,88, 1703,27, 4169,49, 37209,82, 57232,18, 57006,31, 41621,54, -0,05, 0,96, 0,22
38, 72677,19, 79844,48, 1660,04, 4122,62, 37175,82, 57230,16, 56910,36, 41451,73, 0,00, 0,00, 0,00
39, 72675,64, 79828,45, 1662,84, 4129,53, 37187,78, 57253,43, 56898,02, 41316,28, 0,00, 0,00, 0,00
40, 72674,51, 79823,55, 1681,92, 4147,70, 37204,90, 57237,38, 56850,79, 41172,31, 0,00, 0,00, 0,00
41, 72683,04, 79822,57, 1698,82, 4153,45, 37227,25, 57218,30, 56789,86, 41070,75, 0,00, 0,00, 0,00
42, 72684,27, 79807,41, 1720,37, 4167,55, 37258,64, 57173,97, 56745,67, 40958,96, 0,00, 0,00, 0,00
43, 72660,18, 79758,48, 1715,92, 4163,10, 37268,87, 57077,95, 56693,88, 40815,13, 0,00, 0,00, 0,00
44, 72621,22, 79689,11, 1700,03, 4152,22, 37268,45, 56926,27, 56646,54, 40648,68, 0,00, 0,00, 0,00
45, 72610,73, 79699,92, 1685,39, 4144,33, 37267,98, 56818,64, 56617,04, 40518,88, 0,00, 0,00, 0,00
46, 72578,52, 79709,58, 1666,86, 4129,51, 37242,14, 56692,88, 56549,09, 40395,03, -0,06, 0,95, 0,26
47, 72514,40, 79641,63, 1640,60, 4107,42, 37206,51, 56499,80, 56455,16, 40278,82, 0,00, 0,00, 0,00
48, 72461,20, 79542,52, 1646,56, 4117,79, 37188,88, 56233,93, 56347,96, 40114,14, 0,00, 0,00, 0,00
49, 72450,61, 79473,50, 1660,91, 4136,73, 37197,70, 55985,04, 56298,34, 39931,97, 0,00, 0,00, 0,00
50, 72442,83, 79435,77, 1677,23, 4158,83, 37201,75, 55741,98, 56227,40, 39710,73, 0,00, 0,00, 0,00
51, 72420,84, 79379,40, 1694,93, 4176,62, 37201,28, 55463,35, 56111,82, 39449,00, 0,00, 0,00, 0,00
52, 72355,59, 79245,80, 1705,42, 4187,22, 37178,46, 55044,32, 55920,17, 39090,03, 0,00, 0,00, 0,00
53, 72259,32, 79033,82, 1707,03, 4183,42, 37132,62, 54421,73, 55612,61, 38621,22, 0,00, 0,00, 0,00
54, 72183,86, 78823,38, 1722,16, 4195,74, 37115,11, 53690,45, 55294,70, 38136,03, 0,00, 0,00, 0,00
55, 72145,55, 78696,49, 1739,10, 4219,09, 37130,07, 52996,07, 55014,35, 37698,32, 0,00, 0,00, 0,00
56, 72105,23, 78584,93, 1764,76, 4247,93, 37132,01, 52256,01, 54681,69, 37465,70, -0,07, 0,87, 0,27
57, 72090,68, 78505,20, 1775,24, 4256,89, 37137,76, 51543,70, 54405,44, 37287,09, 0,00, 0,00, 0,00
58, 72162,85, 78588,93, 1782,91, 4255,66, 37190,91, 51133,93, 54374,93, 37010,87, 0,00, 0,00, 0,00
59, 72257,04, 78785,65, 1773,86, 4243,79, 37255,57, 51061,78, 54577,77, 36732,30, 0,00, 0,00, 0,00
60, 72273,67, 78923,47, 1761,61, 4234,67, 37261,18, 51054,40, 54709,27, 36455,20, 0,00, 0,00, 0,00
61, 72269,53, 78988,00, 1781,59, 4260,71, 37266,13, 50955,23, 54728,27, 36162,62, 0,00, 0,00, 0,00
62, 72254,78, 78988,23, 1815,39, 4305,26, 37276,05, 50745,92, 54707,59, 35840,53, 0,00, 0,00, 0,00
63, 72234,15, 78937,71, 1860,58, 4356,29, 37296,10, 50398,84, 54644,65, 35444,41, 0,00, 0,00, 0,00
64, 72243,59, 78915,29, 1888,36, 4385,73, 37329,47, 50065,80, 54648,36, 35057,66, 0,00, 0,00, 0,00
65, 72280,24, 78978,57, 1907,45, 4407,70, 37355,82, 49857,20, 54704,62, 34755,57, 0,00, 0,00, 0,00
66, 72272,30, 78988,52, 1927,08, 4428,86, 37356,45, 49578,05, 54673,24, 34400,96, -0,06, 0,81, 0,28
67, 72250,65, 78957,42, 1931,06, 4437,96, 37350,34, 49239,66, 54625,18, 34008,16, 0,00, 0,00, 0,00
68, 72287,82, 79030,65, 1908,53, 4418,36, 37370,19, 49102,63, 54740,09, 33743,76, 0,00, 0,00, 0,00
69, 72366,79, 79224,15, 1856,80, 4363,69, 37398,16, 49343,91, 55088,84, 33733,90, 0,00, 0,00, 0,00
70, 72368,02, 79344,04, 1835,30, 4346,61, 37373,59, 49589,71, 55300,58, 33724,69, 0,00, 0,00, 0,00
71, 72313,39, 79321,11, 1837,54, 4349,63, 37338,16, 49582,98, 55279,35, 33555,15, 0,00, 0,00, 0,00
72, 72301,01, 79299,54, 1842,05, 4350,95, 37337,27, 49540,20, 55270,30, 33374,93, 0,00, 0,00, 0,00
73, 72363,37, 79401,02, 1837,09, 4339,46, 37376,56, 49725,75, 55450,00, 33349,61, 0,00, 0,00, 0,00
74, 72347,14, 79408,55, 1845,99, 4349,05, 37378,13, 49851,72, 55569,99, 33295,18, 0,00, 0,00, 0,00
75, 72271,10, 79275,66, 1877,70, 4385,90, 37346,28, 49634,59, 55405,59, 33032,73, 0,00, 0,00, 0,00
76, 72258,34, 79207,63, 1910,76, 4421,80, 37350,16, 49365,21, 55239,52, 32727,63, -0,05, 0,83, 0,29
77, 72319,63, 79272,23, 1921,45, 4427,70, 37395,32, 49305,49, 55283,33, 32543,85, 0,00, 0,00, 0,00
78, 72355,43, 79351,13, 1921,60, 4426,83, 37420,11, 49397,71, 55444,35, 32422,95, 0,00, 0,00, 0,00
79, 72263,97, 79207,34, 1938,63, 4446,81, 37383,47, 49159,62, 55364,38, 32114,96, 0,00, 0,00, 0,00
80, 72158,72, 78995,29, 1970,08, 4478,82, 37338,68, 48627,92, 55073,87, 31647,16, 0,00, 0,00, 0,00
81, 72135,54, 78890,57, 1992,52, 4495,41, 37338,95, 48111,88, 54826,10, 31129,90, 0,00, 0,00, 0,00
82, 72172,41, 78924,19, 1986,31, 4486,20, 37368,72, 47874,57, 54817,27, 30785,71, 0,00, 0,00, 0,00
83, 72151,30, 78896,98, 1992,32, 4496,23, 37362,68, 47610,73, 54783,23, 30404,23, 0,00, 0,00, 0,00
84, 72125,14, 78822,89, 1998,20, 4503,12, 37357,50, 47254,85, 54704,86, 29976,93, 0,00, 0,00, 0,00
85, 72183,08, 78914,62, 1981,86, 4488,92, 37375,63, 47159,27, 54763,52, 29707,63, 0,00, 0,00, 0,00
86, 72205,77, 79003,36, 1970,89, 4482,22, 37380,52, 47160,04, 54826,04, 29487,05, -0,03, 0,85, 0,29
87, 72206,15, 79041,87, 1961,16, 4477,43, 37385,73, 47134,66, 54865,55, 29246,61, 0,00, 0,00, 0,00
88, 72201,48, 79068,38, 1943,26, 4463,44, 37385,86, 47155,21, 54938,66, 29048,91, 0,00, 0,00, 0,00
89, 72198,16, 79087,87, 1933,94, 4459,53, 37389,39, 47183,55, 55025,72, 28870,85, 0,00, 0,00, 0,00
90, 72232,99, 79186,84, 1929,83, 4460,76, 37406,74, 47312,23, 55138,15, 28731,09, 0,00, 0,00, 0,00
91, 72255,30, 79274,95, 1918,81, 4454,39, 37413,62, 47508,56, 55247,05, 28637,88, 0,00, 0,00, 0,00
92, 72259,14, 79314,45, 1914,94, 4457,54, 37425,78, 47709,84, 55369,07, 28571,12, 0,00, 0,00, 0,00
93, 72243,59, 79290,04, 1924,51, 4471,76, 37427,97, 47816,04, 55434,18, 28451,96, 0,00, 0,00, 0,00
94, 72227,80, 79232,51, 1927,48, 4473,95, 37425,65, 47854,77, 55478,10, 28303,88, 0,00, 0,00, 0,00
95, 72249,77, 79237,80, 1931,88, 4475,65, 37420,71, 47914,79, 55498,64, 28167,64, 0,00, 0,00, 0,00
96, 72272,77, 79248,98, 1945,85, 4488,72, 37424,11, 47971,83, 55499,29, 28015,07, 0,01, 0,90, 0,27
97, 72261,71, 79205,66, 1958,77, 4494,29, 37437,29, 48019,39, 55523,05, 27871,30, 0,00, 0,00, 0,00
98, 72267,28, 79183,98, 1955,13, 4487,16, 37449,09, 48113,00, 55598,66, 27772,67, 0,00, 0,00, 0,00
99, 72294,23, 79180,67, 1950,77, 4486,69, 37455,71, 48247,56, 55706,85, 27699,60, 0,00, 0,00, 0,00
100, 72325,95, 79209,13, 1966,73, 4502,80, 37463,07, 48400,60, 55770,46, 27607,02, 0,00, 0,00, 0,00
101, 72351,01, 79241,09, 1982,15, 4512,28, 37476,01, 48582,45, 55814,70, 27529,95, 0,00, 0,00, 0,00
102, 72369,34, 79235,21, 1996,64, 4521,67, 37487,38, 48755,86, 55859,49, 27409,79, 0,00, 0,00, 0,00
103, 72404,90, 79219,85, 2009,65, 4532,67, 37503,30, 48915,47, 55900,44, 27226,21, 0,00, 0,00, 0,00
104, 72430,47, 79198,24, 2016,48, 4534,03, 37525,70, 49086,46, 55966,24, 27135,42, 0,00, 0,00, 0,00
105, 72452,62, 79212,55, 2027,88, 4534,72, 37540,78, 49278,53, 55988,37, 27061,79, 0,00, 0,00, 0,00
106, 72486,95, 79251,64, 2029,63, 4522,74, 37547,38, 49481,73, 55982,04, 26967,47, 0,03, 1,04, 0,27
107, 72501,32, 79245,94, 2032,15, 4513,22, 37547,71, 49656,54, 55973,57, 26856,04, 0,00, 0,00, 0,00
108, 72485,34, 79199,67, 2033,81, 4505,75, 37548,49, 49778,88, 55951,24, 26723,46, 0,00, 0,00, 0,00
109, 72466,32, 79153,73, 2042,06, 4504,77, 37557,72, 49873,36, 55950,75, 26577,36, 0,00, 0,00, 0,00
110, 72455,66, 79171,58, 2042,93, 4497,80, 37558,64, 50001,30, 55917,09, 26460,11, 0,00, 0,00, 0,00
111, 72433,46, 79204,41, 2051,96, 4500,43, 37554,75, 50074,54, 55821,09, 26285,85, 0,00, 0,00, 0,00
112, 72402,73, 79236,51, 2046,10, 4485,15, 37557,86, 50162,32, 55759,29, 26160,30, 0,00, 0,00, 0,00
113, 72364,13, 79259,73, 2050,59, 4483,65, 37557,66, 50195,54, 55673,19, 26014,08, 0,00, 0,00, 0,00
114, 72326,42, 79289,84, 2042,95, 4473,57, 37555,15, 50233,55, 55605,10, 25893,33, 0,00, 0,00, 0,00
115, 72316,72, 79378,80, 2044,09, 4471,31, 37554,59, 50293,05, 55493,39, 25760,85, 0,00, 0,00, 0,00
116, 72293,20, 79460,80, 2033,09, 4452,76, 37546,88, 50358,05, 55343,34, 25666,87, 0,04, 1,15, 0,26
117, 72252,73, 79496,01, 2025,56, 4438,83, 37533,00, 50351,41, 55167,30, 25555,40, 0,00, 0,00, 0,00
118, 72223,83, 79539,80, 2023,86, 4424,44, 37528,38, 50315,43, 55011,53, 25401,44, 0,00, 0,00, 0,00
119, 72197,88, 79564,70, 2011,52, 4404,05, 37527,39, 50283,71, 54895,12, 25240,24, 0,00, 0,00, 0,00
120, 72187,03, 79616,11, 2006,49, 4397,46, 37523,14, 50284,14, 54764,03, 25101,34, 0,00, 0,00, 0,00
121, 72171,79, 79627,93, 2010,29, 4395,52, 37520,00, 50250,48, 54600,46, 24907,87, 0,00, 0,00, 0,00
122, 72145,51, 79562,91, 2017,98, 4401,97, 37521,83, 50153,38, 54447,73, 24684,01, 0,00, 0,00, 0,00
123, 72119,89, 79483,23, 2017,42, 4401,21, 37532,69, 50056,17, 54349,11, 24514,56, 0,00, 0,00, 0,00
124, 72094,66, 79411,92, 2017,38, 4398,33, 37548,34, 49984,15, 54318,29, 24393,64, 0,00, 0,00, 0,00
125, 72081,38, 79384,54, 2019,30, 4395,49, 37553,70, 49910,41, 54259,30, 24256,71, 0,02, 1,13, 0,22
126, 72063,43, 79355,28, 2017,00, 4388,74, 37555,09, 49831,00, 54189,88, 24110,16, 0,00, 0,00, 0,00
127, 72036,01, 79296,03, 2019,41, 4387,33, 37560,88, 49709,03, 54140,08, 23928,19, 0,00, 0,00, 0,00
128, 72017,36, 79227,03, 2020,08, 4384,27, 37580,95, 49577,71, 54127,32, 23736,10, 0,00, 0,00, 0,00
129, 71996,27, 79149,00, 2012,13, 4378,13, 37598,63, 49470,64, 54172,20, 23573,87, 0,00, 0,00, 0,00
130, 71980,86, 79099,58, 2010,47, 4379,65, 37598,56, 49355,82, 54164,00, 23380,35, 0,00, 0,00, 0,00
131, 71965,40, 79046,88, 2007,66, 4379,15, 37608,84, 49215,41, 54128,57, 23153,10, 0,00, 0,00, 0,00
132, 71942,46, 78969,00, 1999,18, 4372,92, 37622,61, 49071,22, 54128,70, 22940,60, 0,00, 0,00, 0,00
133, 71920,09, 78875,10, 1991,67, 4367,78, 37632,58, 48895,33, 54130,98, 22706,76, 0,00, 0,00, 0,00
134, 71907,21, 78777,42, 1985,04, 4362,26, 37650,26, 48717,70, 54161,65, 22476,49, 0,00, 0,00, 0,00
135, 71910,39, 78738,66, 1980,81, 4361,94, 37667,74, 48566,34, 54158,14, 22250,40, 0,00, 1,06, 0,18
136, 71899,30, 78689,45, 1982,85, 4361,90, 37680,28, 48371,30, 54102,57, 21984,79, 0,00, 0,00, 0,00
137, 71878,38, 78614,30, 1977,41, 4353,52, 37707,10, 48157,26, 54070,45, 21729,65, 0,00, 0,00, 0,00
138, 71858,94, 78535,49, 1973,52, 4352,42, 37742,84, 47929,94, 54054,18, 21468,92, 0,00, 0,00, 0,00
139, 71842,21, 78457,15, 1967,71, 4347,44, 37787,03, 47708,99, 54076,22, 21212,74, 0,00, 0,00, 0,00
140, 71822,84, 78390,65, 1964,11, 4348,02, 37813,56, 47448,01, 54020,34, 20916,87, 0,00, 0,00, 0,00
141, 71797,49, 78302,49, 1970,62, 4353,36, 37839,69, 47098,54, 53891,82, 20559,22, 0,00, 0,00, 0,00
142, 71771,65, 78184,68, 1982,67, 4362,52, 37874,67, 46668,94, 53758,87, 20153,07, 0,00, 0,00, 0,00
143, 71739,27, 78033,05, 1995,63, 4378,55, 37901,96, 46150,36, 53601,09, 19692,67, 0,00, 0,00, 0,00
144, 71700,05, 77840,30, 2010,14, 4398,02, 37930,46, 45500,24, 53399,12, 19150,95, 0,00, 0,00, 0,00
145, 71682,47, 77711,63, 2018,68, 4411,34, 37971,05, 44848,21, 53178,66, 18608,70, -0,02, 0,97, 0,14
146, 71675,74, 77644,30, 2015,66, 4411,65, 38020,41, 44277,48, 53018,94, 18120,80, 0,00, 0,00, 0,00
147, 71682,06, 77611,49, 2011,59, 4410,56, 38080,24, 43821,60, 52983,96, 17705,98, 0,00, 0,00, 0,00
148, 71707,43, 77614,35, 2011,86, 4413,26, 38150,45, 43485,68, 53055,06, 17351,35, 0,00, 0,00, 0,00
149, 71733,32, 77644,91, 2004,17, 4403,20, 38227,81, 43289,36, 53235,66, 17018,46, 0,00, 0,00, 0,00
150, 71766,30, 77711,41, 1993,51, 4393,55, 38283,24, 43192,31, 53396,66, 16726,50, 0,00, 0,00, 0,00
151, 71792,99, 77771,87, 1983,23, 4381,97, 38334,34, 43156,77, 53550,04, 16507,12, 0,00, 0,00, 0,00
152, 71796,95, 77813,23, 1968,43, 4366,01, 38385,97, 43188,51, 53742,67, 16324,17, 0,00, 0,00, 0,00
153, 71791,30, 77832,62, 1956,58, 4351,26, 38428,53, 43246,94, 53944,44, 16179,82, 0,00, 0,00, 0,00
154, 71796,93, 77852,33, 1941,72, 4336,19, 38480,89, 43363,19, 54186,21, 16062,39, 0,00, 0,00, 0,00
155, 71812,55, 77908,97, 1931,37, 4325,89, 38520,75, 43548,15, 54377,28, 15975,57, -0,05, 0,95, 0,11
156, 71821,00, 77949,31, 1918,92, 4309,62, 38554,05, 43741,60, 54514,88, 15872,06, 0,00, 0,00, 0,00
157, 71821,80, 77957,34, 1917,76, 4307,23, 38587,45, 43925,69, 54658,86, 15743,52, 0,00, 0,00, 0,00
158, 71826,81, 77962,08, 1914,61, 4305,46, 38628,11, 44124,33, 54826,14, 15608,25, 0,00, 0,00, 0,00
159, 71829,85, 77969,05, 1905,84, 4299,56, 38673,32, 44368,12, 55033,84, 15516,42, 0,00, 0,00, 0,00
160, 71845,79, 78010,63, 1906,80, 4301,82, 38712,62, 44632,83, 55187,19, 15469,84, 0,00, 0,00, 0,00
161, 71853,86, 78043,48, 1912,73, 4309,04, 38752,25, 44882,50, 55302,08, 15466,40, 0,00, 0,00, 0,00
162, 71840,47, 78039,46, 1903,99, 4307,76, 38782,51, 45124,06, 55429,60, 15470,22, 0,00, 0,00, 0,00
163, 71832,89, 78027,95, 1890,64, 4305,35, 38820,08, 45368,36, 55578,39, 15470,47, 0,00, 0,00, 0,00
164, 71838,52, 78026,88, 1881,61, 4302,13, 38860,56, 45635,64, 55760,58, 15478,65, 0,00, 0,00, 0,00
165, 71854,28, 78057,12, 1886,11, 4312,86, 38889,26, 45878,21, 55851,49, 15431,58, -0,06, 0,96, 0,09
166, 71840,74, 78060,80, 1890,40, 4316,68, 38916,93, 46104,67, 55893,87, 15366,60, 0,00, 0,00, 0,00
167, 71820,22, 78028,59, 1901,06, 4321,58, 38944,72, 46268,69, 55925,65, 15294,25, 0,00, 0,00, 0,00
168, 71817,92, 78023,57, 1903,54, 4318,38, 38981,39, 46445,96, 55987,79, 15280,39, 0,00, 0,00, 0,00
169, 71818,41, 78042,77, 1896,05, 4308,32, 39016,60, 46658,17, 56094,45, 15323,08, 0,00, 0,00, 0,00
170, 71821,41, 78096,97, 1898,09, 4309,82, 39036,05, 46846,98, 56128,60, 15354,31, 0,00, 0,00, 0,00
171, 71821,41, 78145,23, 1902,54, 4315,29, 39052,14, 47010,99, 56114,07, 15379,18, 0,00, 0,00, 0,00
172, 71817,78, 78146,91, 1902,56, 4314,15, 39068,46, 47148,34, 56111,28, 15381,73, 0,00, 0,00, 0,00
173, 71809,89, 78122,41, 1906,36, 4315,79, 39089,54, 47269,71, 56122,30, 15340,67, 0,00, 0,00, 0,00
174, 71797,63, 78090,69, 1900,17, 4308,14, 39120,27, 47426,55, 56184,57, 15336,56, 0,00, 0,00, 0,00
175, 71790,54, 78087,80, 1902,11, 4311,94, 39130,28, 47557,61, 56166,78, 15293,42, -0,08, 1,00, 0,07
176, 71780,45, 78092,92, 1900,14, 4308,30, 39136,03, 47666,05, 56099,50, 15232,91, 0,00, 0,00, 0,00
177, 71756,16, 78048,89, 1892,32, 4298,75, 39138,62, 47754,63, 56047,27, 15161,12, 0,00, 0,00, 0,00
178, 71737,92, 77996,48, 1891,36, 4296,18, 39147,78, 47848,63, 56028,54, 15088,17, 0,00, 0,00, 0,00
179, 71729,05, 77942,56, 1894,00, 4299,76, 39164,14, 47934,27, 56030,68, 15075,54, 0,00, 0,00, 0,00
180, 71719,70, 77923,01, 1890,60, 4295,98, 39172,64, 48010,63, 55961,99, 15187,52, 0,00, 0,00, 0,00
181, 71694,18, 77896,90, 1885,21, 4287,94, 39171,90, 48079,61, 55832,96, 15326,95, 0,00, 0,00, 0,00
182, 71674,64, 77848,73, 1892,37, 4293,21, 39182,59, 48140,27, 55714,98, 15361,12, 0,00, 0,00, 0,00
183, 71657,21, 77796,27, 1891,54, 4291,38, 39203,95, 48207,41, 55632,06, 15379,72, 0,00, 0,00, 0,00
184, 71636,04, 77733,38, 1893,77, 4292,99, 39224,54, 48270,04, 55575,35, 15403,79, 0,00, 0,00, 0,00
185, 71628,40, 77705,23, 1894,85, 4290,93, 39232,70, 48334,59, 55465,54, 15434,42, -0,09, 1,04, 0,08
186, 71610,18, 77674,79, 1898,76, 4289,28, 39232,61, 48388,53, 55327,09, 15458,87, 0,00, 0,00, 0,00
187, 71591,72, 77621,99, 1902,58, 4287,47, 39239,74, 48425,43, 55236,28, 15492,28, 0,00, 0,00, 0,00
188, 71579,94, 77558,00, 1907,88, 4293,14, 39252,14, 48452,07, 55183,53, 15527,31, 0,00, 0,00, 0,00
189, 71564,25, 77488,13, 1903,65, 4290,55, 39271,21, 48493,61, 55181,34, 15587,46, 0,00, 0,00, 0,00
190, 71560,36, 77460,10, 1896,72, 4286,26, 39276,17, 48551,86, 55145,17, 15666,36, 0,00, 0,00, 0,00
191, 71553,27, 77429,26, 1901,46, 4294,42, 39280,20, 48583,04, 55077,58, 15712,92, 0,00, 0,00, 0,00
192, 71545,30, 77373,87, 1914,07, 4311,83, 39293,83, 48574,83, 55032,79, 15726,15, 0,00, 0,00, 0,00
193, 71544,71, 77313,54, 1925,36, 4328,39, 39317,52, 48560,19, 55019,44, 15726,15, 0,00, 0,00, 0,00
194, 71542,81, 77262,42, 1916,24, 4320,82, 39351,18, 48615,00, 55088,93, 15797,05, 0,00, 0,00, 0,00
195, 71561,99, 77231,45, 1922,05, 4330,94, 39366,25, 48656,93, 55085,74, 15844,10, -0,10, 1,03, 0,07
196, 71568,88, 77204,40, 1925,00, 4341,65, 39376,46, 48657,09, 55035,16, 15874,48, 0,00, 0,00, 0,00
197, 71561,48, 77152,68, 1926,47, 4346,50, 39385,52, 48644,70, 55009,72, 15887,02, 0,00, 0,00, 0,00
198, 71547,84, 77102,54, 1920,77, 4340,91, 39403,98, 48685,99, 55039,56, 15944,68, 0,00, 0,00, 0,00
199, 71531,93, 77032,13, 1926,63, 4346,72, 39416,27, 48702,68, 55080,53, 15971,97, 0,00, 0,00, 0,00
200, 71524,98, 76984,57, 1926,85, 4348,13, 39418,82, 48700,74, 55055,99, 15978,30, 0,00, 0,00, 0,00
201, 71512,28, 76938,45, 1928,24, 4355,08, 39417,66, 48669,07, 54992,42, 15972,35, 0,00, 0,00, 0,00
202, 71492,30, 76869,63, 1924,06, 4357,52, 39415,20, 48607,46, 54958,02, 15962,21, 0,00, 0,00, 0,00
203, 71479,55, 76799,77, 1923,93, 4360,09, 39422,17, 48543,07, 54964,30, 15959,75, 0,00, 0,00, 0,00
204, 71467,13, 76729,89, 1921,13, 4361,45, 39434,31, 48498,77, 55020,45, 15974,28, -0,10, 1,03, 0,08
205, 71458,95, 76689,15, 1921,33, 4367,80, 39423,98, 48420,54, 54998,05, 15941,44, 0,00, 0,00, 0,00
206, 71441,41, 76649,41, 1916,80, 4366,93, 39415,04, 48310,63, 54937,97, 15882,68, 0,00, 0,00, 0,00
207, 71416,95, 76601,21, 1909,26, 4359,39, 39422,20, 48241,01, 54938,95, 15872,08, 0,00, 0,00, 0,00
208, 71401,04, 76545,63, 1908,19, 4361,36, 39424,90, 48130,28, 54944,45, 15838,80, 0,00, 0,00, 0,00
209, 71400,14, 76495,36, 1905,33, 4361,99, 39440,50, 48040,56, 54997,83, 15817,08, 0,00, 0,00, 0,00
210, 71408,21, 76476,91, 1905,53, 4367,53, 39443,21, 47953,23, 54978,09, 15756,71, 0,00, 0,00, 0,00
211, 71398,20, 76456,33, 1900,03, 4364,87, 39440,50, 47853,34, 54914,97, 15687,57, 0,00, 0,00, 0,00
212, 71376,41, 76413,75, 1898,07, 4364,27, 39439,34, 47715,45, 54871,50, 15612,42, 0,00, 0,00, 0,00
213, 71362,13, 76371,68, 1897,17, 4367,87, 39446,58, 47574,46, 54861,77, 15544,16, 0,00, 0,00, 0,00
214, 71351,10, 76335,48, 1894,62, 4367,42, 39461,42, 47482,10, 54913,85, 15505,49, -0,07, 1,03, 0,10
215, 71358,27, 76319,88, 1899,41, 4376,40, 39458,72, 47367,50, 54886,16, 15413,05, 0,00, 0,00, 0,00
216, 71358,48, 76306,75, 1898,76, 4377,10, 39453,82, 47235,22, 54827,40, 15291,74, 0,00, 0,00, 0,00
217, 71354,52, 76290,13, 1891,99, 4373,63, 39462,41, 47144,39, 54834,55, 15215,86, 0,00, 0,00, 0,00
218, 71357,80, 76284,00, 1886,51, 4369,59, 39484,11, 47107,17, 54901,14, 15196,26, 0,00, 0,00, 0,00
219, 71353,16, 76285,20, 1879,78, 4364,63, 39502,86, 47123,46, 55023,69, 15212,87, 0,00, 0,00, 0,00
220, 71367,87, 76327,70, 1882,11, 4366,55, 39517,19, 47159,45, 55092,45, 15228,87, 0,00, 0,00, 0,00
221, 71380,34, 76367,82, 1882,91, 4366,01, 39533,15, 47211,49, 55141,62, 15254,19, 0,00, 0,00, 0,00
222, 71377,14, 76380,06, 1874,89, 4359,42, 39549,13, 47294,81, 55231,63, 15303,75, 0,00, 0,00, 0,00
223, 71373,23, 76383,93, 1862,46, 4347,30, 39569,65, 47433,71, 55368,27, 15394,99, 0,00, 0,00, 0,00
224, 71380,14, 76385,16, 1855,40, 4341,65, 39598,28, 47632,59, 55561,07, 15526,95, -0,04, 1,00, 0,12
225, 71391,65, 76409,95, 1854,14, 4340,95, 39604,14, 47835,57, 55677,46, 15648,99, 0,00, 0,00, 0,00
226, 71391,38, 76408,97, 1857,68, 4344,87, 39601,50, 47989,80, 55721,46, 15720,03, 0,00, 0,00, 0,00
227, 71380,83, 76376,84, 1849,07, 4338,05, 39603,49, 48147,87, 55794,45, 15819,18, 0,00, 0,00, 0,00
228, 71371,82, 76338,88, 1843,93, 4332,68, 39614,09, 48312,49, 55900,35, 15964,69, 0,00, 0,00, 0,00
229, 71365,77, 76311,73, 1835,73, 4324,03, 39636,17, 48524,32, 56061,82, 16167,02, 0,00, 0,00, 0,00
230, 71367,22, 76308,85, 1832,15, 4324,41, 39636,04, 48728,28, 56145,10, 16320,86, 0,00, 0,00, 0,00
231, 71364,85, 76289,16, 1826,65, 4319,07, 39632,82, 48914,46, 56180,53, 16440,98, 0,00, 0,00, 0,00
232, 71355,70, 76245,80, 1828,86, 4323,36, 39636,28, 49078,37, 56228,45, 16532,96, 0,00, 0,00, 0,00
233, 71348,91, 76198,63, 1834,34, 4331,50, 39650,52, 49254,59, 56300,69, 16630,57, 0,00, 0,00, 0,00
234, 71338,70, 76155,88, 1828,13, 4323,59, 39667,33, 49468,63, 56415,15, 16766,27, -0,02, 0,99, 0,13
235, 71333,98, 76139,07, 1828,75, 4322,22, 39664,49, 49672,05, 56444,59, 16888,22, 0,00, 0,00, 0,00
236, 71335,50, 76115,89, 1840,13, 4333,91, 39656,42, 49805,45, 56404,40, 16954,85, 0,00, 0,00, 0,00
237, 71332,86, 76072,33, 1852,00, 4348,22, 39658,25, 49908,05, 56391,15, 17017,70, 0,00, 0,00, 0,00
238, 71321,84, 76027,31, 1854,55, 4350,48, 39666,45, 50022,84, 56417,66, 17108,83, 0,00, 0,00, 0,00
239, 71304,79, 75993,56, 1844,13, 4339,10, 39679,06, 50195,00, 56503,80, 17257,22, 0,00, 0,00, 0,00
240, 71299,96, 75980,84, 1849,83, 4344,15, 39676,04, 50330,11, 56494,55, 17366,43, 0,00, 0,00, 0,00
241, 71296,99, 75958,35, 1869,46, 4361,41, 39670,34, 50382,86, 56413,63, 17408,86, 0,00, 0,00, 0,00
242, 71286,28, 75923,98, 1877,66, 4366,12, 39666,54, 50407,63, 56358,78, 17448,49, 0,00, 0,00, 0,00
243, 71273,12, 75899,10, 1888,54, 4375,11, 39667,62, 50422,23, 56333,34, 17487,18, 0,00, 0,00, 0,00
244, 71266,88, 75899,66, 1896,55, 4380,29, 39682,59, 50478,08, 56363,48, 17548,15, -0,01, 1,04, 0,16
245, 71265,34, 75939,40, 1905,13, 4386,57, 39680,18, 50538,70, 56326,80, 17535,50, 0,00, 0,00, 0,00
246, 71258,92, 75973,73, 1921,47, 4403,63, 39666,10, 50530,05, 56233,61, 17418,58, 0,00, 0,00, 0,00
247, 71247,91, 75990,38, 1930,01, 4413,49, 39659,32, 50485,32, 56172,79, 17358,54, 0,00, 0,00, 0,00
248, 71236,41, 76000,47, 1934,74, 4419,27, 39660,06, 50445,23, 56151,36, 17354,25, 0,00, 0,00, 0,00
249, 71224,62, 76011,84, 1923,57, 4407,70, 39666,68, 50480,92, 56216,29, 17410,76, 0,00, 0,00, 0,00
250, 71216,12, 76048,37, 1917,58, 4402,40, 39658,81, 50534,36, 56216,94, 17476,56, 0,00, 0,00, 0,00
251, 71208,45, 76067,90, 1917,85, 4403,87, 39644,98, 50535,93, 56163,47, 17492,38, 0,00, 0,00, 0,00
252, 71191,00, 76063,21, 1915,28, 4399,29, 39642,58, 50541,85, 56161,57, 17520,59, 0,00, 0,00, 0,00
253, 71176,85, 76057,35, 1907,12, 4388,03, 39652,24, 50579,71, 56210,21, 17578,44, 0,00, 0,00, 0,00
254, 71158,77, 76040,88, 1887,00, 4366,79, 39664,67, 50669,10, 56310,68, 17689,08, -0,01, 1,03, 0,19
255, 71146,78, 76029,81, 1872,61, 4351,53, 39655,86, 50753,52, 56319,20, 17774,29, 0,00, 0,00, 0,00
0, 71136,52, 76001,25, 1868,87, 4344,28, 39637,98, 50779,21, 56259,56, 17801,15, 0,00, 0,00, 0,00
1, 71118,45, 75947,02, 1854,26, 4328,77, 39623,56, 50771,76, 56214,16, 17827,10, 0,00, 0,00, 0,00
2, 71097,59, 75894,01, 1828,17, 4301,66, 39618,04, 50810,03, 56225,83, 17891,14, 0,00, 0,00, 0,00
3, 71090,21, 75846,35, 1823,66, 4297,21, 39626,87, 50878,29, 56290,09, 17971,27, 0,00, 0,00, 0,00
4, 71098,17, 75838,41, 1818,36, 4292,18, 39622,46, 50947,25, 56285,42, 18046,64, 0,00, 0,00, 0,00
5, 71095,82, 75825,95, 1814,02, 4285,19, 39616,83, 50994,74, 56246,69, 18117,07, 0,00, 0,00, 0,00
6, 71085,67, 75795,70, 1808,14, 4277,63, 39612,45, 51039,31, 56247,25, 18191,82, 0,00, 0,00, 0,00
7, 71086,28, 75768,34, 1817,06, 4284,29, 39620,39, 51069,91, 56272,48, 18235,80, 0,00, 0,00, 0,00
8, 71084,09, 75735,71, 1818,60, 4282,17, 39636,32, 51135,71, 56347,38, 18316,72, -0,01, 0,97, 0,18
9, 71091,02, 75727,08, 1828,35, 4289,97, 39639,10, 51177,47, 56335,31, 18371,35, 0,00, 0,00, 0,00
10, 71092,05, 75710,48, 1828,57, 4294,06, 39633,80, 51169,78, 56269,91, 18379,77, 0,00, 0,00, 0,00
11, 71081,25, 75676,88, 1832,08, 4299,22, 39631,18, 51147,07, 56237,55, 18382,54, 0,00, 0,00, 0,00
12, 71079,53, 75639,51, 1843,44, 4307,40, 39636,53, 51109,03, 56226,55, 18377,85, 0,00, 0,00, 0,00
13, 71078,05, 75609,42, 1845,47, 4308,12, 39655,68, 51112,49, 56269,20, 18417,21, 0,00, 0,00, 0,00
14, 71074,90, 75594,36, 1852,69, 4319,65, 39648,98, 51080,71, 56213,29, 18414,08, 0,00, 0,00, 0,00
15, 71077,78, 75579,25, 1864,31, 4335,19, 39646,59, 50987,57, 56103,59, 18359,92, 0,00, 0,00, 0,00
16, 71065,47, 75544,02, 1864,05, 4340,10, 39645,42, 50878,07, 56031,26, 18321,03, 0,00, 0,00, 0,00
17, 71058,79, 75500,77, 1872,45, 4353,47, 39651,73, 50738,37, 55983,59, 18259,86, -0,01, 0,96, 0,18
18, 71053,53, 75464,02, 1875,71, 4360,45, 39667,55, 50630,45, 55997,02, 18231,87, 0,00, 0,00, 0,00
19, 71056,77, 75449,23, 1882,29, 4367,44, 39657,65, 50484,03, 55924,71, 18150,53, 0,00, 0,00, 0,00
20, 71060,80, 75439,21, 1889,48, 4373,14, 39649,63, 50305,41, 55822,56, 18036,52, 0,00, 0,00, 0,00
21, 71051,39, 75417,66, 1888,05, 4373,99, 39650,96, 50148,46, 55783,54, 17960,45, 0,00, 0,00, 0,00
22, 71053,96, 75393,35, 1895,63, 4382,10, 39657,89, 49990,37, 55784,05, 17880,19, 0,00, 0,00, 0,00
23, 71059,50, 75380,02, 1897,66, 4383,06, 39678,21, 49902,04, 55860,47, 17870,29, 0,00, 0,00, 0,00
24, 71061,29, 75379,60, 1902,94, 4390,58, 39672,91, 49789,78, 55842,34, 17832,06, 0,00, 0,00, 0,00
25, 71069,85, 75372,63, 1915,12, 4400,90, 39663,59, 49609,58, 55753,45, 17719,72, 0,00, 0,00, 0,00
26, 71062,36, 75349,70, 1919,75, 4402,58, 39668,60, 49444,72, 55712,39, 17636,67, 0,00, 0,00, 0,00
27, 71054,47, 75321,29, 1924,17, 4406,56, 39678,88, 49281,48, 55705,39, 17560,87, -0,01, 0,95, 0,17
28, 71052,69, 75299,36, 1923,28, 4403,36, 39696,18, 49173,43, 55757,41, 17536,46, 0,00, 0,00, 0,00
29, 71059,91, 75304,70, 1928,55, 4409,02, 39701,84, 49069,32, 55733,98, 17495,07, 0,00, 0,00, 0,00
30, 71057,38, 75297,41, 1935,21, 4416,01, 39699,65, 48919,61, 55653,32, 17397,17, 0,00, 0,00, 0,00
31, 71047,07, 75279,98, 1931,82, 4411,72, 39705,30, 48790,88, 55625,06, 17324,97, 0,00, 0,00, 0,00
32, 71042,94, 75267,75, 1937,70, 4417,33, 39718,58, 48678,21, 55634,56, 17265,02, 0,00, 0,00, 0,00
33, 71039,20, 75258,52, 1939,06, 4416,17, 39740,82, 48617,79, 55709,29, 17245,42, 0,00, 0,00, 0,00
34, 71040,81, 75267,51, 1938,92, 4416,93, 39739,52, 48557,11, 55710,96, 17209,95, 0,00, 0,00, 0,00
35, 71038,40, 75270,59, 1941,27, 4421,20, 39729,44, 48448,97, 55658,17, 17125,86, 0,00, 0,00, 0,00
36, 71030,63, 75266,34, 1933,67, 4415,59, 39729,46, 48370,65, 55666,14, 17080,91, 0,00, 0,00, 0,00
37, 71018,59, 75250,72, 1929,78, 4411,41, 39727,74, 48297,45, 55704,93, 17043,34, -0,01, 0,96, 0,17
38, 71006,64, 75229,11, 1925,98, 4407,65, 39733,18, 48247,51, 55785,21, 17027,00, 0,00, 0,00, 0,00
39, 70997,05, 75218,11, 1923,05, 4405,44, 39719,88, 48180,55, 55771,16, 16989,87, 0,00, 0,00, 0,00
40, 70983,41, 75194,66, 1925,63, 4405,95, 39699,45, 48030,16, 55670,28, 16889,45, 0,00, 0,00, 0,00
41, 70963,30, 75147,10, 1933,34, 4413,04, 39690,15, 47831,57, 55581,12, 16771,68, 0,00, 0,00, 0,00
42, 70951,30, 75091,84, 1943,91, 4425,04, 39686,28, 47596,05, 55511,58, 16629,07, 0,00, 0,00, 0,00
43, 70944,05, 75046,90, 1945,36, 4426,00, 39693,32, 47380,29, 55495,00, 16507,72, 0,00, 0,00, 0,00
44, 70943,16, 75036,50, 1945,92, 4428,24, 39690,37, 47164,95, 55412,50, 16375,83, 0,00, 0,00, 0,00
45, 70944,73, 75028,21, 1950,14, 4433,20, 39681,88, 46896,66, 55285,27, 16189,21, 0,00, 0,00, 0,00
46, 70935,00, 75015,05, 1943,75, 4426,29, 39687,82, 46668,23, 55234,94, 16043,37, 0,00, 0,00, 0,00
47, 70935,47, 75009,95, 1942,66, 4426,27, 39702,64, 46476,43, 55243,77, 15923,20, -0,03, 0,97, 0,17
48, 70932,61, 75008,30, 1934,61, 4416,12, 39715,76, 46344,57, 55322,49, 15853,91, 0,00, 0,00, 0,00
49, 70928,19, 75023,76, 1930,36, 4410,58, 39706,09, 46209,66, 55321,71, 15760,39, 0,00, 0,00, 0,00
50, 70905,74, 75019,56, 1913,78, 4394,42, 39680,04, 46028,86, 55256,17, 15616,65, 0,00, 0,00, 0,00
51, 70893,47, 75007,60, 1912,57, 4391,13, 39675,46, 45861,55, 55241,04, 15505,76, 0,00, 0,00, 0,00
52, 70885,76, 74985,02, 1919,25, 4396,90, 39677,88, 45670,34, 55237,86, 15387,54, 0,00, 0,00, 0,00
53, 70869,24, 74953,51, 1918,87, 4397,12, 39677,09, 45484,70, 55260,91, 15284,73, 0,00, 0,00, 0,00
54, 70859,68, 74930,00, 1917,98, 4396,36, 39651,68, 45232,29, 55159,16, 15108,82, 0,00, 0,00, 0,00
55, 70851,07, 74908,61, 1921,98, 4401,30, 39630,40, 44933,11, 55013,00, 14897,95, 0,00, 0,00, 0,00
56, 70840,90, 74879,66, 1933,09, 4412,21, 39622,46, 44608,45, 54903,80, 14686,41, 0,00, 0,00, 0,00
57, 70841,86, 74850,60, 1947,60, 4424,77, 39631,70, 44281,69, 54834,73, 14480,51, -0,05, 0,98, 0,16
58, 70832,79, 74818,53, 1950,14, 4427,52, 39640,46, 43973,46, 54803,82, 14287,46, 0,00, 0,00, 0,00
59, 70832,63, 74815,29, 1955,15, 4436,04, 39633,48, 43636,30, 54685,35, 14049,50, 0,00, 0,00, 0,00
60, 70841,57, 74822,15, 1972,14, 4455,28, 39636,70, 43277,25, 54542,23, 13787,07, 0,00, 0,00, 0,00
61, 70840,72, 74813,99, 1976,43, 4461,56, 39647,25, 42937,97, 54466,37, 13547,21, 0,00, 0,00, 0,00
62, 70831,70, 74799,75, 1971,00, 4457,05, 39654,72, 42631,70, 54447,55, 13329,33, 0,00, 0,00, 0,00
63, 70829,41, 74801,83, 1966,13, 4454,12, 39672,20, 42401,01, 54507,21, 13166,81, 0,00, 0,00, 0,00
64, 70842,42, 74843,34, 1965,75, 4456,45, 39684,29, 42222,29, 54524,39, 13018,46, 0,00, 0,00, 0,00
65, 70851,92, 74887,26, 1964,23, 4454,12, 39690,68, 42065,02, 54530,48, 12869,82, 0,00, 0,00, 0,00
66, 70855,45, 74933,17, 1954,08, 4441,94, 39708,88, 41995,33, 54631,30, 12794,05, 0,00, 0,00, 0,00
67, 70853,44, 74973,41, 1944,80, 4433,20, 39730,74, 41992,13, 54782,67, 12762,24, -0,05, 0,98, 0,16
68, 70834,51, 74949,71, 1944,58, 4432,78, 39728,84, 41917,86, 54871,32, 12692,39, 0,00, 0,00, 0,00
69, 70835,45, 74934,87, 1953,70, 4439,97, 39717,57, 41755,52, 54824,56, 12555,71, 0,00, 0,00, 0,00
70, 70835,20, 74922,35, 1965,17, 4449,34, 39709,64, 41542,62, 54723,06, 12379,25, 0,00, 0,00, 0,00
71, 70833,30, 74889,92, 1973,90, 4458,46, 39706,15, 41289,59, 54647,51, 12179,67, 0,00, 0,00, 0,00
72, 70833,57, 74865,55, 1975,96, 4461,72, 39717,46, 41076,83, 54637,14, 12016,14, 0,00, 0,00, 0,00
73, 70831,52, 74857,58, 1968,88, 4452,78, 39738,70, 40950,72, 54718,28, 11922,49, 0,00, 0,00, 0,00
74, 70845,10, 74892,89, 1969,17, 4451,75, 39750,07, 40855,39, 54748,72, 11828,61, 0,00, 0,00, 0,00
75, 70848,91, 74919,34, 1971,13, 4452,83, 39752,64, 40745,11, 54734,41, 11708,83, 0,00, 0,00, 0,00
76, 70842,94, 74911,11, 1966,75, 4446,79, 39757,02, 40628,68, 54744,94, 11597,54, 0,00, 0,00, 0,00
77, 70829,05, 74883,52, 1962,01, 4443,62, 39757,02, 40507,04, 54775,54, 11505,25, -0,06, 0,99, 0,16
78, 70819,40, 74847,85, 1957,36, 4440,38, 39757,29, 40385,04, 54831,22, 11419,17, 0,00, 0,00, 0,00
79, 70820,80, 74848,95, 1952,04, 4437,76, 39746,38, 40260,14, 54812,09, 11323,82, 0,00, 0,00, 0,00
80, 70808,98, 74838,33, 1950,08, 4436,55, 39724,39, 40082,42, 54731,33, 11182,78, 0,00, 0,00, 0,00
81, 70796,94, 74813,59, 1949,81, 4435,50, 39714,60, 39877,68, 54680,37, 11021,78, 0,00, 0,00, 0,00
82, 70785,20, 74796,20, 1939,39, 4425,62, 39720,30, 39727,52, 54700,57, 10909,06, 0,00, 0,00, 0,00
83, 70773,47, 74791,13, 1928,02, 4411,12, 39728,73, 39637,55, 54781,42, 10850,41, 0,00, 0,00, 0,00
84, 70771,32, 74820,88, 1924,64, 4408,77, 39718,20, 39530,36, 54767,52, 10761,29, 0,00, 0,00, 0,00
85, 70762,52, 74845,51, 1928,26, 4414,58, 39707,71, 39370,23, 54687,70, 10606,19, 0,00, 0,00, 0,00
86, 70741,50, 74821,79, 1933,34, 4422,58, 39692,96, 39129,43, 54588,16, 10418,35, -0,07, 1,02, 0,16
87, 70715,93, 74757,62, 1944,07, 4437,04, 39670,34, 38781,17, 54455,78, 10185,29, 0,00, 0,00, 0,00
88, 70696,17, 74665,20, 1963,56, 4461,32, 39649,45, 38327,12, 54300,03, 9887,41, 0,00, 0,00, 0,00
89, 70692,04, 74591,03, 1992,46, 4496,10, 39616,21, 37741,95, 54015,40, 9479,60, 0,00, 0,00, 0,00
90, 70682,16, 74506,92, 2021,40, 4530,94, 39583,35, 37029,75, 53650,09, 8979,54, 0,00, 0,00, 0,00
91, 70672,37, 74401,69, 2051,20, 4564,70, 39562,63, 36225,05, 53297,44, 8421,53, 0,00, 0,00, 0,00
92, 70666,29, 74324,30, 2054,93, 4570,57, 39561,89, 35468,73, 53043,71, 7915,96, 0,00, 0,00, 0,00
93, 70668,03, 74259,16, 2062,69, 4580,59, 39556,48, 34722,90, 52852,57, 7399,16, 0,00, 0,00, 0,00
94, 70676,77, 74265,73, 2074,09, 4598,36, 39572,06, 34054,69, 52674,81, 6914,87, 0,00, 0,00, 0,00
95, 70673,11, 74289,93, 2084,43, 4616,35, 39593,52, 33438,75, 52524,88, 6453,86, 0,00, 0,00, 0,00
96, 70674,02, 74299,70, 2082,58, 4612,26, 39602,86, 32854,47, 52437,48, 6016,33, -0,08, 1,03, 0,17
97, 70668,77, 74312,48, 2073,48, 4601,08, 39627,34, 32350,21, 52439,27, 5644,84, 0,00, 0,00, 0,00
98, 70661,02, 74332,87, 2061,93, 4589,01, 39653,54, 31950,30, 52531,71, 5355,19, 0,00, 0,00, 0,00
99, 70674,23, 74410,77, 2060,29, 4589,68, 39675,60, 31634,74, 52599,51, 5098,48, 0,00, 0,00, 0,00
100, 70682,74, 74478,49, 2064,47, 4595,16, 39688,34, 31325,10, 52632,21, 4815,77, 0,00, 0,00, 0,00
101, 70682,00, 74515,77, 2056,94, 4588,48, 39704,21, 31055,27, 52712,70, 4571,89, 0,00, 0,00, 0,00
102, 70681,45, 74544,34, 2046,50, 4580,95, 39719,20, 30848,16, 52842,61, 4380,03, 0,00, 0,00, 0,00
103, 70686,09, 74576,75, 2035,06, 4570,17, 39739,48, 30712,99, 53030,65, 4241,20, 0,00, 0,00, 0,00
104, 70709,27, 74667,07, 2029,25, 4563,42, 39759,24, 30659,39, 53185,80, 4134,09, 0,00, 0,00, 0,00
105, 70721,27, 74758,23, 2020,87, 4554,86, 39776,83, 30664,38, 53324,44, 4053,80, 0,00, 0,00, 0,00
106, 70719,38, 74813,03, 2012,44, 4547,89, 39788,34, 30694,87, 53486,89, 3992,71, -0,08, 0,99, 0,17
107, 70724,96, 74868,08, 2002,72, 4537,90, 39809,21, 30787,20, 53697,96, 3974,21, 0,00, 0,00, 0,00
108, 70733,28, 74941,89, 1980,88, 4511,50, 39843,66, 31024,98, 54006,26, 4070,16, 0,00, 0,00, 0,00
109, 70761,44, 75072,16, 1968,43, 4495,49, 39872,85, 31390,30, 54300,50, 4227,12, 0,00, 0,00, 0,00
110, 70790,88, 75203,27, 1956,14, 4481,44, 39908,84, 31850,61, 54604,10, 4421,87, 0,00, 0,00, 0,00
111, 70820,94, 75342,95, 1929,76, 4452,71, 39970,57, 32524,60, 55053,89, 4780,64, 0,00, 0,00, 0,00
112, 70884,13, 75589,71, 1882,82, 4398,69, 40079,49, 33603,68, 55779,47, 5403,98, 0,00, 0,00, 0,00
113, 71007,17, 76126,41, 1786,11, 4288,05, 40298,76, 35645,58, 57151,75, 6651,86, 0,00, 0,00, 0,00
114, 70935,18, 76282,50, 1759,62, 4277,63, 40267,88, 37360,07, 57930,89, 7655,99, 0,00, 0,00, 0,00
115, 70885,74, 76145,73, 1783,62, 4302,96, 40152,67, 38254,96, 58024,77, 8139,07, 0,00, 0,00, 0,00
116, 70866,88, 76041,23, 1795,20, 4314,58, 40102,22, 39037,16, 58116,23, 8575,49, -0,07, 0,97, 0,18
117, 70851,74, 75956,26, 1796,77, 4317,62, 40079,54, 39769,79, 58215,83, 9003,98, 0,00, 0,00, 0,00
118, 70850,60, 75921,20, 1793,62, 4312,19, 40081,01, 40544,63, 58387,85, 9474,68, 0,00, 0,00, 0,00
119, 70885,74, 76003,82, 1786,71, 4300,32, 40106,32, 41464,14, 58602,98, 10025,03, 0,00, 0,00, 0,00
120, 70933,10, 76154,76, 1770,62, 4279,76, 40155,91, 42576,05, 58926,21, 10685,68, 0,00, 0,00, 0,00
121, 70951,38, 76290,05, 1743,73, 4250,43, 40198,23, 43835,12, 59348,30, 11452,85, 0,00, 0,00, 0,00
122, 70938,42, 76350,61, 1728,08, 4236,35, 40212,31, 45061,76, 59712,26, 12213,19, 0,00, 0,00, 0,00
123, 70920,88, 76324,66, 1722,81, 4234,87, 40198,56, 46123,45, 59946,39, 12888,26, 0,00, 0,00, 0,00
124, 70938,69, 76358,98, 1718,27, 4230,00, 40194,98, 47191,37, 60120,49, 13562,99, 0,00, 0,00, 0,00
125, 70962,67, 76422,53, 1713,19, 4223,43, 40205,51, 48305,63, 60308,89, 14256,03, 0,00, 0,00, 0,00
126, 70971,19, 76464,82, 1706,87, 4216,70, 40224,33, 49429,47, 60540,21, 14964,69, -0,06, 0,95, 0,16
127, 70974,07, 76504,43, 1687,18, 4197,34, 40243,46, 50613,87, 60828,24, 15734,85, 0,00, 0,00, 0,00
128, 70987,04, 76557,36, 1670,55, 4176,49, 40270,80, 51870,75, 61176,79, 16566,17, 0,00, 0,00, 0,00
129, 71027,94, 76685,16, 1659,24, 4158,45, 40306,41, 53225,54, 61514,50, 17437,47, 0,00, 0,00, 0,00
130, 71063,93, 76868,74, 1627,72, 4123,99, 40358,18, 54798,96, 61951,32, 18446,40, 0,00, 0,00, 0,00
131, 70980,40, 76752,80, 1623,38, 4132,39, 40270,55, 55928,06, 62004,34, 19196,50, 0,00, 0,00, 0,00
132, 70925,70, 76490,38, 1659,08, 4174,43, 40161,01, 56475,28, 61714,01, 19596,62, 0,00, 0,00, 0,00
133, 70915,49, 76316,79, 1683,51, 4199,98, 40121,09, 56971,58, 61511,08, 19979,15, 0,00, 0,00, 0,00
134, 70921,39, 76217,75, 1710,31, 4227,41, 40095,52, 57396,28, 61247,44, 20294,02, 0,00, 0,00, 0,00
135, 70915,51, 76140,79, 1724,97, 4242,38, 40081,10, 57774,77, 60971,33, 20587,92, 0,00, 0,00, 0,00
136, 70902,70, 76068,26, 1732,24, 4250,09, 40073,39, 58130,40, 60753,74, 20893,94, -0,05, 0,98, 0,16
137, 70899,87, 76018,21, 1746,74, 4264,71, 40080,19, 58480,97, 60598,33, 21197,10, 0,00, 0,00, 0,00
138, 70902,55, 75995,68, 1753,27, 4268,92, 40101,02, 58889,49, 60539,81, 21547,06, 0,00, 0,00, 0,00
139, 70918,02, 76027,29, 1764,40, 4279,15, 40111,90, 59322,96, 60448,30, 21890,31, 0,00, 0,00, 0,00
140, 70913,68, 76069,53, 1760,22, 4277,54, 40114,72, 59767,51, 60351,83, 22249,26, 0,00, 0,00, 0,00
141, 70904,52, 76086,54, 1772,07, 4293,59, 40108,75, 60146,87, 60263,77, 22566,01, 0,00, 0,00, 0,00
142, 70898,66, 76088,42, 1778,75, 4300,79, 40110,16, 60502,28, 60213,65, 22870,84, 0,00, 0,00, 0,00
143, 70891,55, 76085,56, 1776,99, 4297,86, 40119,28, 60904,90, 60236,77, 23231,60, 0,00, 0,00, 0,00
144, 70899,75, 76108,89, 1781,72, 4303,29, 40110,67, 61276,16, 60179,12, 23548,93, 0,00, 0,00, 0,00
145, 70900,06, 76113,09, 1790,69, 4312,97, 40094,96, 61565,22, 60061,28, 23797,19, 0,00, 0,00, 0,00
146, 70889,05, 76082,07, 1799,63, 4319,81, 40083,63, 61787,11, 59958,75, 24017,64, -0,05, 1,01, 0,16
147, 70874,12, 76036,16, 1807,09, 4325,69, 40076,07, 61976,96, 59881,13, 24233,71, 0,00, 0,00, 0,00
148, 70861,46, 75982,34, 1814,47, 4330,05, 40074,38, 62145,25, 59835,42, 24445,21, 0,00, 0,00, 0,00
149, 70868,30, 75974,23, 1827,93, 4342,23, 40068,92, 62290,93, 59720,91, 24634,28, 0,00, 0,00, 0,00
150, 70863,84, 75954,24, 1840,64, 4353,18, 40058,35, 62374,64, 59551,17, 24777,58, 0,00, 0,00, 0,00
151, 70857,89, 75909,90, 1850,30, 4362,75, 40056,63, 62432,09, 59419,43, 24920,21, 0,00, 0,00, 0,00
152, 70855,84, 75863,18, 1862,41, 4375,60, 40061,12, 62478,78, 59332,61, 25063,14, 0,00, 0,00, 0,00
153, 70852,37, 75826,59, 1862,06, 4377,07, 40070,78, 62553,05, 59305,90, 25235,12, 0,00, 0,00, 0,00
154, 70862,59, 75843,84, 1864,85, 4380,79, 40077,88, 62649,12, 59230,73, 25415,36, 0,00, 0,00, 0,00
155, 70857,22, 75848,43, 1867,44, 4387,02, 40074,89, 62716,67, 59112,81, 25573,19, 0,00, 0,00, 0,00
156, 70849,84, 75820,49, 1877,48, 4398,80, 40078,53, 62744,88, 59017,72, 25702,90, -0,06, 1,02, 0,16
157, 70843,02, 75783,81, 1886,58, 4405,84, 40086,73, 62768,26, 58963,25, 25826,01, 0,00, 0,00, 0,00
158, 70838,89, 75763,52, 1887,74, 4404,84, 40109,06, 62852,57, 58990,63, 26003,15, 0,00, 0,00, 0,00
159, 70844,32, 75781,91, 1886,00, 4403,03, 40116,33, 62953,53, 58962,74, 26175,17, 0,00, 0,00, 0,00
160, 70841,04, 75793,00, 1885,39, 4405,06, 40111,48, 63028,32, 58892,96, 26327,74, 0,00, 0,00, 0,00
161, 70836,09, 75776,05, 1895,23, 4413,91, 40106,23, 63056,95, 58841,14, 26450,38, 0,00, 0,00, 0,00
162, 70830,89, 75751,65, 1891,61, 4408,90, 40109,91, 63106,39, 58840,54, 26597,17, 0,00, 0,00, 0,00
163, 70822,48, 75717,52, 1883,09, 4401,48, 40110,16, 63193,52, 58890,25, 26780,65, 0,00, 0,00, 0,00
164, 70822,02, 75706,90, 1879,40, 4400,01, 40098,65, 63261,18, 58856,52, 26938,05, 0,00, 0,00, 0,00
165, 70826,87, 75696,39, 1889,26, 4409,84, 40087,52, 63269,11, 58762,06, 27038,59, -0,06, 1,00, 0,17
166, 70823,98, 75673,35, 1887,00, 4406,00, 40086,94, 63283,31, 58718,16, 27156,94, 0,00, 0,00, 0,00
167, 70814,41, 75647,30, 1886,40, 4403,47, 40090,49, 63307,76, 58713,14, 27284,73, 0,00, 0,00, 0,00
168, 70807,38, 75631,91, 1877,14, 4391,58, 40105,36, 63387,69, 58772,90, 27457,62, 0,00, 0,00, 0,00
169, 70806,91, 75651,55, 1871,80, 4383,49, 40107,32, 63495,36, 58772,99, 27636,84, 0,00, 0,00, 0,00
170, 70799,57, 75650,33, 1876,12, 4385,50, 40100,66, 63534,88, 58702,96, 27753,71, 0,00, 0,00, 0,00
171, 70787,95, 75626,09, 1877,19, 4384,54, 40098,78, 63558,61, 58664,72, 27870,08, 0,00, 0,00, 0,00
172, 70772,05, 75608,77, 1868,49, 4376,23, 40104,64, 63627,21, 58688,50, 28036,22, 0,00, 0,00, 0,00
173, 70767,59, 75591,72, 1872,70, 4382,82, 40114,29, 63698,07, 58744,50, 28199,47, 0,00, 0,00, 0,00
174, 70775,19, 75609,53, 1872,29, 4383,04, 40112,28, 63770,93, 58738,19, 28343,71, 0,00, 0,00, 0,00
175, 70772,30, 75618,72, 1872,18, 4380,92, 40107,70, 63833,20, 58705,29, 28483,18, -0,07, 1,00, 0,17
176, 70769,35, 75599,27, 1880,18, 4390,06, 40102,85, 63844,52, 58682,22, 28583,07, 0,00, 0,00, 0,00
177, 70759,92, 75580,48, 1875,60, 4387,00, 40111,79, 63890,25, 58715,21, 28720,96, 0,00, 0,00, 0,00
178, 70752,14, 75570,53, 1868,76, 4378,39, 40129,83, 63995,52, 58812,89, 28914,44, 0,00, 0,00, 0,00
179, 70754,91, 75593,58, 1870,71, 4380,52, 40123,37, 64091,93, 58821,18, 29078,54, 0,00, 0,00, 0,00
180, 70752,12, 75604,80, 1868,23, 4380,41, 40112,82, 64160,70, 58781,53, 29220,14, 0,00, 0,00, 0,00
181, 70745,17, 75586,96, 1872,09, 4388,76, 40103,63, 64189,80, 58752,12, 29341,02, 0,00, 0,00, 0,00
182, 70733,34, 75562,51, 1870,04, 4384,72, 40104,86, 64229,66, 58760,88, 29478,17, 0,00, 0,00, 0,00
183, 70722,95, 75534,41, 1869,30, 4381,21, 40112,80, 64291,21, 58811,46, 29632,44, 0,00, 0,00, 0,00
184, 70727,76, 75541,25, 1877,97, 4388,23, 40111,95, 64338,02, 58783,43, 29752,76, 0,00, 0,00, 0,00
185, 70728,02, 75547,53, 1880,97, 4386,35, 40113,91, 64368,89, 58721,85, 29864,25, -0,07, 1,00, 0,18
186, 70719,84, 75534,32, 1884,81, 4392,10, 40112,82, 64382,05, 58686,07, 29976,62, 0,00, 0,00, 0,00
187, 70710,10, 75514,00, 1881,01, 4387,63, 40117,98, 64410,10, 58694,23, 30103,84, 0,00, 0,00, 0,00
188, 70697,20, 75496,55, 1872,88, 4376,78, 40127,30, 64497,83, 58766,09, 30282,23, 0,00, 0,00, 0,00
189, 70702,52, 75517,65, 1875,15, 4378,62, 40126,43, 64585,48, 58767,90, 30439,54, 0,00, 0,00, 0,00
190, 70700,89, 75521,06, 1883,60, 4386,46, 40112,53, 64606,33, 58704,80, 30533,04, 0,00, 0,00, 0,00
191, 70696,09, 75507,99, 1883,54, 4381,28, 40114,52, 64642,14, 58695,72, 30655,17, 0,00, 0,00, 0,00
192, 70683,05, 75490,16, 1881,88, 4379,18, 40122,52, 64703,96, 58730,77, 30802,51, 0,00, 0,00, 0,00
193, 70674,25, 75469,79, 1879,56, 4379,11, 40135,98, 64785,01, 58807,10, 30960,92, 0,00, 0,00, 0,00
194, 70681,20, 75493,88, 1883,72, 4381,12, 40141,72, 64884,21, 58823,62, 31119,08, 0,00, 0,00, 0,00
195, 70674,85, 75511,19, 1886,35, 4381,68, 40139,26, 64951,33, 58789,20, 31250,55, -0,08, 0,99, 0,19
196, 70662,67, 75501,06, 1886,62, 4383,45, 40141,00, 65002,83, 58779,92, 31382,29, 0,00, 0,00, 0,00
197, 70657,02, 75491,45, 1885,19, 4379,91, 40154,55, 65084,03, 58821,45, 31539,38, 0,00, 0,00, 0,00
198, 70639,67, 75481,03, 1870,51, 4360,98, 40164,99, 65230,19, 58922,95, 31752,44, 0,00, 0,00, 0,00
199, 70643,31, 75500,97, 1880,81, 4370,68, 40166,44, 65346,04, 58933,81, 31922,40, 0,00, 0,00, 0,00
200, 70634,21, 75503,92, 1882,37, 4376,58, 40159,07, 65414,41, 58886,34, 32057,27, 0,00, 0,00, 0,00
201, 70617,72, 75475,11, 1876,23, 4371,51, 40149,05, 65445,75, 58858,91, 32179,65, 0,00, 0,00, 0,00
202, 70604,82, 75442,12, 1875,80, 4373,77, 40146,77, 65467,99, 58861,73, 32299,21, 0,00, 0,00, 0,00
203, 70593,84, 75410,00, 1873,01, 4373,07, 40149,12, 65512,13, 58909,20, 32439,67, 0,00, 0,00, 0,00
204, 70599,95, 75413,11, 1879,27, 4381,70, 40140,07, 65534,46, 58872,44, 32547,18, 0,00, 0,00, 0,00
205, 70602,19, 75405,53, 1891,72, 4395,94, 40129,23, 65492,55, 58776,37, 32601,00, -0,07, 0,99, 0,20
206, 70594,98, 75370,17, 1889,68, 4394,93, 40121,89, 65440,56, 58720,33, 32667,32, 0,00, 0,00, 0,00
207, 70587,34, 75321,98, 1887,67, 4396,36, 40119,12, 65393,67, 58708,20, 32745,10, 0,00, 0,00, 0,00
208, 70576,62, 75283,55, 1880,25, 4391,65, 40123,35, 65401,00, 58751,22, 32868,38, 0,00, 0,00, 0,00
209, 70584,26, 75278,26, 1887,52, 4399,14, 40118,09, 65389,38, 58703,79, 32950,63, 0,00, 0,00, 0,00
210, 70584,03, 75262,79, 1894,38, 4405,39, 40111,43, 65323,20, 58606,52, 32992,36, 0,00, 0,00, 0,00
211, 70576,59, 75230,94, 1894,06, 4404,37, 40112,64, 65252,54, 58557,03, 33049,27, 0,00, 0,00, 0,00
212, 70567,98, 75196,16, 1895,16, 4403,58, 40121,89, 65209,96, 58556,67, 33133,13, 0,00, 0,00, 0,00
213, 70562,98, 75162,74, 1902,74, 4406,74, 40132,04, 65178,71, 58590,80, 33219,23, 0,00, 0,00, 0,00
214, 70569,57, 75168,35, 1909,11, 4409,60, 40132,42, 65144,36, 58553,28, 33284,45, 0,00, 0,00, 0,00
215, 70566,78, 75164,35, 1909,35, 4412,32, 40129,67, 65090,20, 58476,23, 33335,41, -0,07, 0,97, 0,21
216, 70559,98, 75133,13, 1914,45, 4421,47, 40127,37, 65001,06, 58419,77, 33367,15, 0,00, 0,00, 0,00
217, 70556,16, 75098,62, 1919,05, 4424,84, 40136,82, 64915,23, 58409,87, 33404,66, 0,00, 0,00, 0,00
218, 70544,36, 75071,88, 1908,97, 4415,56, 40149,27, 64896,68, 58465,93, 33505,55, 0,00, 0,00, 0,00
219, 70552,70, 75077,92, 1920,75, 4428,53, 40147,02, 64838,41, 58424,39, 33550,21, 0,00, 0,00, 0,00
220, 70551,58, 75072,45, 1927,82, 4436,20, 40139,33, 64748,84, 58340,82, 33566,69, 0,00, 0,00, 0,00
221, 70541,41, 75052,53, 1924,46, 4431,32, 40138,12, 64668,54, 58300,59, 33604,75, 0,00, 0,00, 0,00
222, 70527,98, 75023,92, 1923,26, 4429,78, 40138,61, 64595,15, 58290,20, 33650,95, 0,00, 0,00, 0,00
223, 70524,31, 75002,26, 1920,86, 4426,00, 40144,07, 64545,44, 58326,29, 33716,24, 0,00, 0,00, 0,00
224, 70535,48, 75014,28, 1924,28, 4431,08, 40138,77, 64498,50, 58292,25, 33762,04, 0,00, 0,00, 0,00
225, 70529,25, 75019,29, 1922,34, 4431,55, 40127,91, 64423,83, 58223,14, 33787,32, -0,07, 0,98, 0,22
226, 70516,58, 75005,73, 1917,47, 4428,91, 40121,54, 64341,82, 58191,60, 33819,48, 0,00, 0,00, 0,00
227, 70510,27, 74982,81, 1913,38, 4426,92, 40125,25, 64269,82, 58202,69, 33866,25, 0,00, 0,00, 0,00
228, 70503,84, 74959,21, 1912,66, 4427,70, 40131,62, 64225,95, 58258,34, 33937,68, 0,00, 0,00, 0,00
229, 70511,77, 74972,13, 1922,07, 4437,31, 40128,89, 64155,50, 58226,05, 33961,38, 0,00, 0,00, 0,00
230, 70511,50, 74983,87, 1926,79, 4443,59, 40126,36, 64062,80, 58163,24, 33968,82, 0,00, 0,00, 0,00
231, 70502,70, 74970,37, 1926,39, 4444,80, 40128,82, 63970,31, 58139,84, 33990,92, 0,00, 0,00, 0,00
232, 70494,96, 74952,73, 1927,26, 4446,52, 40142,66, 63896,64, 58158,30, 34032,95, 0,00, 0,00, 0,00
233, 70490,38, 74938,49, 1926,23, 4446,99, 40157,21, 63849,72, 58217,71, 34096,36, 0,00, 0,00, 0,00
234, 70502,27, 74956,95, 1928,75, 4447,73, 40158,33, 63806,83, 58206,40, 34146,47, -0,06, 0,98, 0,21
235, 70507,66, 74957,51, 1943,77, 4463,40, 40153,25, 63696,95, 58128,48, 34135,43, 0,00, 0,00, 0,00
236, 70500,30, 74937,91, 1944,22, 4461,10, 40155,09, 63584,96, 58091,78, 34137,53, 0,00, 0,00, 0,00
237, 70492,20, 74914,95, 1946,99, 4461,83, 40168,65, 63501,35, 58101,64, 34168,64, 0,00, 0,00, 0,00
238, 70481,89, 74893,74, 1940,65, 4455,28, 40185,04, 63454,50, 58155,57, 34229,30, 0,00, 0,00, 0,00
239, 70482,98, 74908,27, 1939,95, 4454,99, 40180,75, 63415,29, 58137,76, 34278,72, 0,00, 0,00, 0,00
240, 70484,10, 74906,91, 1946,88, 4461,25, 40169,44, 63317,33, 58062,01, 34272,96, 0,00, 0,00, 0,00
241, 70474,53, 74886,59, 1944,38, 4457,41, 40160,79, 63211,58, 58024,70, 34273,71, 0,00, 0,00, 0,00
242, 70467,52, 74861,94, 1943,66, 4456,69, 40158,30, 63106,04, 58020,28, 34275,97, 0,00, 0,00, 0,00
243, 70462,15, 74840,43, 1937,92, 4449,43, 40165,12, 63034,93, 58067,06, 34307,60, 0,00, 0,00, 0,00
244, 70458,80, 74854,83, 1930,50, 4442,21, 40156,96, 62982,27, 58050,23, 34338,96, -0,06, 0,98, 0,20
245, 70450,77, 74848,03, 1932,60, 4444,78, 40139,66, 62875,52, 57976,80, 34319,16, 0,00, 0,00, 0,00
246, 70443,29, 74821,92, 1933,07, 4447,73, 40132,42, 62752,52, 57938,04, 34299,04, 0,00, 0,00, 0,00
247, 70431,02, 74796,11, 1927,15, 4443,55, 40138,55, 62673,48, 57956,11, 34329,57, 0,00, 0,00, 0,00
248, 70421,09, 74776,98, 1916,73, 4431,97, 40149,95, 62638,93, 58024,57, 34394,28, 0,00, 0,00, 0,00
249, 70426,97, 74791,26, 1922,54, 4435,61, 40144,38, 62575,65, 58003,33, 34412,81, 0,00, 0,00, 0,00
250, 70426,45, 74799,04, 1931,66, 4440,04, 40143,04, 62477,53, 57937,04, 34397,79, 0,00, 0,00, 0,00
251, 70414,32, 74785,20, 1928,44, 4433,65, 40140,80, 62381,17, 57908,14, 34397,48, 0,00, 0,00, 0,00
252, 70405,16, 74763,21, 1930,65, 4433,16, 40143,75, 62292,66, 57915,16, 34407,11, 0,00, 0,00, 0,00
253, 70402,74, 74751,07, 1932,35, 4430,70, 40156,27, 62246,68, 57978,61, 34452,60, 0,00, 0,00, 0,00
254, 70408,57, 74776,73, 1933,02, 4429,96, 40154,17, 62210,34, 57973,18, 34491,82, -0,06, 0,98, 0,21
255, 70407,63, 74783,52, 1944,74, 4443,66, 40145,16, 62114,51, 57908,14, 34474,46, 0,00, 0,00, 0,00
0, 70400,98, 74765,98, 1945,63, 4444,42, 40143,89, 62009,41, 57884,07, 34462,79, 0,00, 0,00, 0,00
1, 70392,37, 74744,92, 1941,29, 4440,44, 40145,77, 61933,84, 57908,16, 34485,14, 0,00, 0,00, 0,00
2, 70386,40, 74731,38, 1939,89, 4441,45, 40151,58, 61882,14, 57972,51, 34523,54, 0,00, 0,00, 0,00
3, 70393,11, 74755,92, 1939,86, 4441,07, 40147,33, 61839,65, 57969,20, 34554,97, 0,00, 0,00, 0,00
4, 70393,02, 74759,38, 1947,98, 4449,18, 40134,90, 61731,00, 57896,63, 34521,55, 0,00, 0,00, 0,00
5, 70383,90, 74747,45, 1943,84, 4443,84, 40134,81, 61634,00, 57872,53, 34511,79, 0,00, 0,00, 0,00
6, 70372,77, 74730,28, 1937,96, 4437,16, 40140,80, 61563,81, 57894,23, 34533,51, 0,00, 0,00, 0,00
7, 70365,44, 74711,35, 1929,58, 4428,91, 40150,10, 61523,24, 57958,14, 34580,83, 0,00, 0,00, 0,00
8, 70366,69, 74724,92, 1926,59, 4423,77, 40144,71, 61477,42, 57945,98, 34602,64, -0,07, 0,99, 0,22
9, 70366,87, 74724,23, 1934,45, 4434,05, 40133,14, 61373,26, 57871,10, 34569,00, 0,00, 0,00, 0,00
10, 70361,91, 74703,88, 1932,96, 4432,86, 40128,96, 61255,04, 57832,10, 34536,06, 0,00, 0,00, 0,00
11, 70353,03, 74688,38, 1927,93, 4429,94, 40137,34, 61185,53, 57856,57, 34557,29, 0,00, 0,00, 0,00
12, 70343,87, 74675,19, 1924,73, 4427,68, 40146,48, 61147,96, 57923,56, 34603,38, 0,00, 0,00, 0,00
13, 70347,15, 74697,74, 1925,33, 4427,23, 40146,10, 61113,13, 57913,77, 34633,16, 0,00, 0,00, 0,00
14, 70342,93, 74700,82, 1928,11, 4430,63, 40136,36, 61030,30, 57850,27, 34620,68, 0,00, 0,00, 0,00
15, 70331,05, 74681,80, 1923,03, 4425,35, 40127,37, 60938,99, 57820,99, 34616,61, 0,00, 0,00, 0,00
16, 70324,60, 74660,21, 1921,51, 4421,33, 40124,75, 60841,85, 57817,32, 34608,19, 0,00, 0,00, 0,00
17, 70316,91, 74650,06, 1914,99, 4415,97, 40135,30, 60805,32, 57879,97, 34651,62, 0,00, 0,00, 0,00
18, 70322,41, 74667,41, 1918,25, 4424,64, 40132,02, 60763,06, 57865,91, 34668,43, -0,06, 0,99, 0,22
19, 70324,33, 74677,16, 1922,65, 4432,66, 40127,66, 60688,63, 57809,86, 34659,22, 0,00, 0,00, 0,00
20, 70316,59, 74666,65, 1923,68, 4436,64, 40130,32, 60600,56, 57787,24, 34649,65, 0,00, 0,00, 0,00
21, 70304,93, 74654,47, 1918,54, 4431,84, 40136,38, 60548,62, 57814,64, 34677,97, 0,00, 0,00, 0,00
22, 70302,05, 74643,60, 1923,50, 4437,56, 40143,89, 60505,14, 57871,48, 34708,64, 0,00, 0,00, 0,00
23, 70312,69, 74663,38, 1925,58, 4441,69, 40144,13, 60456,73, 57859,48, 34716,30, 0,00, 0,00, 0,00
24, 70313,02, 74670,11, 1929,22, 4446,79, 40137,90, 60379,35, 57803,57, 34695,58, 0,00, 0,00, 0,00
25, 70307,56, 74653,62, 1932,04, 4449,76, 40137,27, 60279,93, 57774,21, 34667,42, 0,00, 0,00, 0,00
26, 70301,46, 74640,88, 1928,13, 4450,54, 40146,84, 60218,57, 57802,41, 34681,03, 0,00, 0,00, 0,00
27, 70300,16, 74630,69, 1931,32, 4454,84, 40165,73, 60186,61, 57874,79, 34716,57, 0,00, 0,00, 0,00
28, 70302,13, 74651,41, 1931,46, 4454,57, 40166,06, 60168,52, 57876,67, 34751,17, -0,06, 0,98, 0,22
29, 70293,77, 74655,85, 1932,73, 4455,62, 40155,94, 60107,37, 57823,54, 34748,29, 0,00, 0,00, 0,00
30, 70284,63, 74639,63, 1935,68, 4458,64, 40152,96, 60026,59, 57796,34, 34738,36, 0,00, 0,00, 0,00
31, 70278,82, 74622,48, 1936,76, 4459,71, 40156,50, 59956,41, 57810,17, 34741,07, 0,00, 0,00, 0,00
32, 70272,79, 74602,63, 1935,46, 4458,82, 40165,14, 59915,93, 57866,88, 34767,78, 0,00, 0,00, 0,00
33, 70278,22, 74616,55, 1934,36, 4460,31, 40159,51, 59875,58, 57851,61, 34773,59, 0,00, 0,00, 0,00
34, 70269,55, 74626,35, 1926,79, 4455,53, 40144,92, 59833,25, 57807,80, 34783,18, 0,00, 0,00, 0,00
35, 70261,68, 74608,63, 1929,76, 4458,97, 40132,36, 59742,93, 57770,68, 34758,62, 0,00, 0,00, 0,00
36, 70250,75, 74596,89, 1921,00, 4448,13, 40130,63, 59701,86, 57797,05, 34788,54, 0,00, 0,00, 0,00
37, 70244,35, 74585,04, 1925,16, 4451,91, 40133,47, 59663,38, 57849,91, 34814,61, 0,00, 0,00, 0,00
38, 70246,13, 74604,82, 1932,67, 4456,51, 40138,01, 59627,23, 57834,93, 34822,65, -0,06, 0,97, 0,22
39, 70242,66, 74611,53, 1939,97, 4459,31, 40134,88, 59556,02, 57771,64, 34798,96, 0,00, 0,00, 0,00
40, 70231,15, 74595,79, 1938,03, 4455,89, 40133,92, 59485,46, 57749,13, 34789,68, 0,00, 0,00, 0,00
41, 70220,62, 74583,25, 1932,78, 4454,01, 40140,02, 59445,65, 57775,88, 34815,63, 0,00, 0,00, 0,00
42, 70217,42, 74571,07, 1932,60, 4456,92, 40151,02, 59422,58, 57836,23, 34852,20, 0,00, 0,00, 0,00
43, 70219,01, 74593,42, 1932,64, 4457,43, 40154,04, 59401,95, 57827,18, 34871,60, 0,00, 0,00, 0,00
44, 70212,46, 74598,14, 1936,91, 4463,44, 40145,61, 59332,95, 57763,01, 34846,91, 0,00, 0,00, 0,00
45, 70202,49, 74585,13, 1935,71, 4466,08, 40146,05, 59257,60, 57740,52, 34830,45, 0,00, 0,00, 0,00
46, 70190,73, 74569,62, 1933,76, 4465,95, 40157,01, 59212,77, 57769,58, 34848,18, 0,00, 0,00, 0,00
47, 70181,73, 74549,19, 1935,62, 4467,40, 40166,33, 59172,87, 57825,32, 34864,05, 0,00, 0,00, 0,00
48, 70190,98, 74571,43, 1936,26, 4468,56, 40172,21, 59142,87, 57818,69, 34872,09, -0,06, 0,97, 0,22
49, 70186,04, 74582,83, 1936,33, 4468,94, 40171,47, 59095,69, 57778,54, 34870,13, 0,00, 0,00, 0,00
50, 70179,40, 74567,88, 1940,82, 4473,54, 40168,34, 59024,76, 57764,66, 34857,86, 0,00, 0,00, 0,00
51, 70173,19, 74549,59, 1936,53, 4468,18, 40172,95, 58980,35, 57794,75, 34876,66, 0,00, 0,00, 0,00
52, 70164,05, 74533,12, 1930,41, 4461,52, 40182,47, 58974,83, 57868,64, 34928,13, 0,00, 0,00, 0,00
53, 70173,59, 74545,95, 1938,88, 4470,97, 40175,05, 58939,83, 57849,06, 34928,27, 0,00, 0,00, 0,00
54, 70175,45, 74554,48, 1942,59, 4474,35, 40157,86, 58861,26, 57778,05, 34888,50, 0,00, 0,00, 0,00
55, 70171,71, 74546,35, 1939,24, 4476,41, 40148,63, 58780,97, 57749,66, 34860,96, 0,00, 0,00, 0,00
56, 70160,70, 74535,11, 1932,78, 4476,90, 40146,19, 58734,28, 57767,07, 34868,77, 0,00, 0,00, 0,00
57, 70161,97, 74533,50, 1933,45, 4478,69, 40152,63, 58708,93, 57823,49, 34890,20, -0,06, 0,98, 0,23
58, 70167,91, 74559,85, 1936,56, 4480,38, 40148,71, 58693,89, 57817,16, 34907,23, 0,00, 0,00, 0,00
59, 70165,90, 74573,44, 1939,91, 4479,69, 40141,59, 58644,98, 57767,93, 34896,13, 0,00, 0,00, 0,00
60, 70154,55, 74562,09, 1933,49, 4471,15, 40138,01, 58599,86, 57756,08, 34903,30, 0,00, 0,00, 0,00
61, 70145,25, 74539,96, 1937,20, 4472,41, 40139,84, 58544,60, 57764,46, 34899,16, 0,00, 0,00, 0,00
62, 70138,97, 74528,31, 1937,81, 4470,06, 40153,66, 58527,57, 57826,06, 34925,02, 0,00, 0,00, 0,00
63, 70142,39, 74556,45, 1941,11, 4473,68, 40160,38, 58524,71, 57827,29, 34947,91, 0,00, 0,00, 0,00
64, 70136,38, 74567,63, 1945,41, 4479,40, 40158,73, 58490,51, 57783,37, 34943,69, 0,00, 0,00, 0,00
65, 70123,08, 74547,22, 1941,76, 4476,81, 40154,30, 58441,38, 57764,62, 34938,41, 0,00, 0,00, 0,00
66, 70108,91, 74525,30, 1935,50, 4468,76, 40161,86, 58417,58, 57795,29, 34961,95, 0,00, 0,00, 0,00
67, 70094,13, 74507,26, 1929,22, 4462,57, 40171,76, 58421,60, 57863,88, 35005,40, -0,06, 0,97, 0,23
68, 70095,90, 74519,40, 1930,54, 4463,24, 40171,38, 58417,09, 57858,67, 35022,68, 0,00, 0,00, 0,00
69, 70093,10, 74523,17, 1935,12, 4466,46, 40169,35, 58388,63, 57810,73, 35023,02, 0,00, 0,00, 0,00
70, 70084,09, 74500,40, 1936,87, 4467,47, 40166,78, 58326,74, 57782,57, 35006,47, 0,00, 0,00, 0,00
71, 70076,47, 74477,46, 1937,94, 4467,55, 40171,83, 58264,11, 57790,41, 34992,28, 0,00, 0,00, 0,00
72, 70066,32, 74464,79, 1932,17, 4459,46, 40178,62, 58253,96, 57854,92, 35025,20, 0,00, 0,00, 0,00
73, 70069,68, 74492,28, 1931,44, 4459,31, 40177,57, 58259,66, 57855,63, 35055,78, 0,00, 0,00, 0,00
74, 70070,02, 74503,97, 1940,15, 4470,80, 40169,01, 58198,60, 57791,80, 35025,03, 0,00, 0,00, 0,00
75, 70069,09, 74502,02, 1942,68, 4474,91, 40172,30, 58138,92, 57767,70, 35008,62, 0,00, 0,00, 0,00
76, 70059,62, 74492,44, 1932,98, 4466,12, 40173,82, 58112,10, 57791,11, 35026,10, 0,00, 0,00, 0,00
77, 70048,20, 74481,77, 1925,63, 4457,50, 40176,72, 58115,96, 57854,23, 35067,81, -0,08, 0,97, 0,23
78, 70054,73, 74503,77, 1928,44, 4458,99, 40169,39, 58105,77, 57836,43, 35076,57, 0,00, 0,00, 0,00
79, 70057,16, 74518,01, 1935,57, 4463,71, 40158,84, 58067,02, 57782,70, 35060,34, 0,00, 0,00, 0,00
80, 70048,98, 74514,21, 1933,83, 4461,10, 40156,65, 58035,77, 57769,16, 35067,00, 0,00, 0,00, 0,00
81, 70048,38, 74500,26, 1943,35, 4470,53, 40160,45, 57992,25, 57778,30, 35063,85, 0,00, 0,00, 0,00
82, 70048,60, 74489,40, 1945,52, 4471,71, 40171,40, 57978,37, 57834,20, 35084,50, 0,00, 0,00, 0,00
83, 70047,68, 74510,79, 1942,55, 4470,10, 40168,27, 57980,58, 57824,36, 35104,53, 0,00, 0,00, 0,00
84, 70046,74, 74519,84, 1951,58, 4481,03, 40163,80, 57934,38, 57764,26, 35079,59, 0,00, 0,00, 0,00
85, 70034,18, 74506,61, 1951,73, 4479,11, 40168,00, 57893,88, 57747,54, 35074,76, 0,00, 0,00, 0,00
86, 70021,20, 74484,05, 1951,40, 4476,79, 40176,16, 57863,88, 57768,15, 35083,81, 0,00, 0,00, 0,00
87, 70016,68, 74468,57, 1950,03, 4474,77, 40185,95, 57857,49, 57826,87, 35109,92, -0,07, 0,98, 0,23
88, 70011,14, 74488,39, 1944,62, 4470,44, 40185,57, 57868,53, 57823,71, 35136,85, 0,00, 0,00, 0,00
89, 70002,09, 74492,91, 1946,97, 4473,75, 40176,10, 57835,94, 57770,41, 35125,61, 0,00, 0,00, 0,00
90, 69997,91, 74478,91, 1952,22, 4475,74, 40176,66, 57774,30, 57743,61, 35099,19, 0,00, 0,00, 0,00
91, 69986,08, 74462,84, 1945,59, 4465,90, 40185,24, 57750,34, 57773,47, 35115,17, 0,00, 0,00, 0,00
92, 69978,19, 74451,78, 1940,51, 4458,37, 40201,69, 57764,37, 57849,42, 35166,22, 0,00, 0,00, 0,00
93, 69979,69, 74474,53, 1941,29, 4458,64, 40206,09, 57778,43, 57849,53, 35199,64, 0,00, 0,00, 0,00
94, 69975,46, 74476,55, 1950,37, 4467,87, 40197,09, 57733,35, 57790,12, 35176,79, 0,00, 0,00, 0,00
95, 69975,64, 74459,41, 1956,34, 4470,82, 40193,71, 57658,85, 57756,30, 35136,05, 0,00, 0,00, 0,00
96, 69965,90, 74448,18, 1946,86, 4460,09, 40201,31, 57632,59, 57783,01, 35152,05, 0,00, 0,00, 0,00
97, 69959,64, 74434,88, 1944,29, 4460,87, 40206,54, 57619,46, 57844,82, 35178,25, -0,07, 0,97, 0,24
98, 69962,05, 74460,79, 1941,76, 4463,51, 40202,65, 57621,84, 57843,21, 35200,89, 0,00, 0,00, 0,00
99, 69961,45, 74475,36, 1947,24, 4472,72, 40194,36, 57571,97, 57790,84, 35174,43, 0,00, 0,00, 0,00
100, 69953,83, 74468,92, 1938,41, 4466,46, 40190,54, 57535,64, 57776,73, 35175,25, 0,00, 0,00, 0,00
101, 69940,38, 74450,48, 1931,26, 4460,85, 40180,70, 57503,95, 57791,68, 35186,09, 0,00, 0,00, 0,00
102, 69931,88, 74427,20, 1927,77, 4460,22, 40181,19, 57479,39, 57840,08, 35198,59, 0,00, 0,00, 0,00
103, 69939,57, 74443,55, 1932,33, 4467,44, 40179,56, 57459,16, 57822,57, 35198,16, 0,00, 0,00, 0,00
104, 69939,68, 74452,97, 1935,06, 4470,77, 40171,92, 57409,18, 57764,06, 35172,37, 0,00, 0,00, 0,00
105, 69928,73, 74442,21, 1927,28, 4464,49, 40171,31, 57373,86, 57752,97, 35178,47, 0,00, 0,00, 0,00
106, 69911,85, 74418,79, 1919,66, 4455,02, 40177,06, 57368,93, 57784,91, 35214,93, 0,00, 0,00, 0,00
107, 69911,25, 74405,18, 1928,71, 4461,32, 40190,52, 57362,46, 57836,63, 35242,69, -0,07, 0,97, 0,24
108, 69916,81, 74431,28, 1932,38, 4463,62, 40195,57, 57382,83, 57831,67, 35277,33, 0,00, 0,00, 0,00
109, 69910,15, 74434,15, 1937,96, 4469,43, 40185,89, 57347,00, 57770,72, 35255,20, 0,00, 0,00, 0,00
110, 69898,89, 74421,78, 1938,54, 4470,93, 40184,61, 57303,93, 57747,27, 35240,99, 0,00, 0,00, 0,00
111, 69888,47, 74406,18, 1937,78, 4470,84, 40192,59, 57274,06, 57765,98, 35243,83, 0,00, 0,00, 0,00
112, 69880,36, 74394,16, 1939,04, 4473,61, 40204,55, 57271,52, 57828,01, 35269,80, 0,00, 0,00, 0,00
113, 69881,56, 74417,96, 1936,29, 4470,97, 40204,62, 57280,39, 57824,86, 35290,34, 0,00, 0,00, 0,00
114, 69874,77, 74426,70, 1938,68, 4471,02, 40196,10, 57257,59, 57779,30, 35284,98, 0,00, 0,00, 0,00
115, 69863,98, 74414,79, 1939,77, 4468,61, 40198,25, 57216,73, 57760,10, 35277,51, 0,00, 0,00, 0,00
116, 69851,23, 74397,51, 1937,40, 4464,58, 40208,06, 57198,18, 57783,46, 35295,53, 0,00, 0,00, 0,00
117, 69843,37, 74378,09, 1940,33, 4467,76, 40218,03, 57194,02, 57837,24, 35321,21, -0,07, 0,97, 0,24
118, 69845,73, 74392,73, 1943,24, 4472,70, 40217,11, 57186,55, 57820,77, 35325,34, 0,00, 0,00, 0,00
119, 69845,35, 74403,55, 1949,92, 4477,79, 40211,68, 57150,12, 57770,23, 35306,50, 0,00, 0,00, 0,00
120, 69842,36, 74395,86, 1953,79, 4480,65, 40213,11, 57102,34, 57751,74, 35292,31, 0,00, 0,00, 0,00
121, 69828,55, 74380,41, 1940,82, 4469,88, 40218,72, 57098,25, 57790,55, 35324,34, 0,00, 0,00, 0,00
122, 69820,61, 74362,27, 1936,82, 4467,31, 40219,86, 57106,18, 57857,13, 35361,62, 0,00, 0,00, 0,00
123, 69830,89, 74380,03, 1939,71, 4468,83, 40215,35, 57108,30, 57850,58, 35375,39, 0,00, 0,00, 0,00
124, 69823,70, 74384,66, 1936,98, 4467,73, 40203,54, 57078,78, 57800,22, 35363,92, 0,00, 0,00, 0,00
125, 69817,93, 74371,47, 1940,51, 4473,57, 40198,67, 57027,88, 57777,45, 35343,72, 0,00, 0,00, 0,00
126, 69810,27, 74359,91, 1939,19, 4470,26, 40207,23, 57016,46, 57812,20, 35369,31, -0,06, 0,97, 0,24
127, 69801,61, 74345,23, 1935,26, 4464,45, 40210,96, 57025,85, 57878,14, 35412,27, 0,00, 0,00, 0,00
128, 69804,36, 74358,69, 1939,08, 4469,37, 40202,02, 57009,89, 57856,35, 35409,52, 0,00, 0,00, 0,00
129, 69808,50, 74366,06, 1949,36, 4478,37, 40196,55, 56940,46, 57783,50, 35356,73, 0,00, 0,00, 0,00
130, 69794,41, 74362,87, 1942,61, 4467,15, 40196,62, 56914,54, 57773,58, 35359,70, 0,00, 0,00, 0,00
131, 69780,65, 74351,04, 1935,01, 4458,86, 40202,05, 56899,74, 57800,78, 35376,04, 0,00, 0,00, 0,00
132, 69775,28, 74334,03, 1933,65, 4458,32, 40207,41, 56899,63, 57859,19, 35405,39, 0,00, 0,00, 0,00
133, 69782,61, 74352,23, 1936,49, 4462,03, 40207,30, 56898,73, 57849,15, 35416,02, 0,00, 0,00, 0,00
134, 69777,07, 74369,64, 1933,34, 4460,22, 40202,20, 56889,14, 57808,83, 35423,49, 0,00, 0,00, 0,00
135, 69764,93, 74355,34, 1933,96, 4460,67, 40199,01, 56850,61, 57787,57, 35413,32, 0,00, 0,00, 0,00
136, 69752,13, 74331,26, 1931,06, 4454,50, 40204,77, 56833,38, 57813,41, 35424,43, -0,06, 0,97, 0,23
137, 69744,03, 74311,73, 1932,26, 4451,44, 40213,56, 56839,55, 57876,58, 35452,70, 0,00, 0,00, 0,00
138, 69749,38, 74334,61, 1938,10, 4451,44, 40217,58, 56846,65, 57870,88, 35466,05, 0,00, 0,00, 0,00
139, 69745,82, 74350,08, 1944,22, 4456,13, 40218,12, 56821,55, 57826,20, 35456,01, 0,00, 0,00, 0,00
140, 69734,60, 74345,61, 1939,62, 4450,37, 40218,97, 56799,87, 57817,88, 35465,31, 0,00, 0,00, 0,00
141, 69721,86, 74329,63, 1938,39, 4447,68, 40216,17, 56767,89, 57828,86, 35465,80, 0,00, 0,00, 0,00
142, 69721,64, 74324,45, 1940,20, 4449,83, 40230,93, 56774,23, 57887,75, 35500,40, 0,00, 0,00, 0,00
143, 69730,18, 74349,16, 1943,82, 4456,98, 40231,84, 56784,29, 57878,45, 35522,38, 0,00, 0,00, 0,00
144, 69730,49, 74358,13, 1946,70, 4462,17, 40223,66, 56749,80, 57821,41, 35502,17, 0,00, 0,00, 0,00
145, 69721,80, 74347,58, 1941,99, 4459,49, 40217,85, 56716,88, 57801,63, 35497,79, 0,00, 0,00, 0,00
146, 69714,10, 74334,39, 1937,81, 4454,73, 40218,30, 56702,66, 57823,98, 35514,44, -0,07, 0,97, 0,23
147, 69705,77, 74321,91, 1934,16, 4445,94, 40223,15, 56712,50, 57884,73, 35548,77, 0,00, 0,00, 0,00
148, 69708,30, 74335,95, 1937,43, 4446,28, 40217,40, 56707,78, 57866,74, 35550,00, 0,00, 0,00, 0,00
149, 69706,88, 74347,95, 1939,37, 4448,02, 40211,23, 56674,59, 57814,21, 35527,96, 0,00, 0,00, 0,00
150, 69699,46, 74342,52, 1935,84, 4445,74, 40207,95, 56643,05, 57799,55, 35522,64, 0,00, 0,00, 0,00
151, 69687,20, 74328,55, 1923,46, 4436,73, 40208,86, 56643,10, 57832,97, 35551,30, 0,00, 0,00, 0,00
152, 69681,41, 74322,90, 1919,57, 4433,85, 40215,79, 56658,72, 57898,26, 35588,58, 0,00, 0,00, 0,00
153, 69688,47, 74353,59, 1926,03, 4440,04, 40214,83, 56674,75, 57891,15, 35610,60, 0,00, 0,00, 0,00
154, 69687,33, 74366,17, 1935,39, 4450,46, 40210,83, 56643,90, 57834,98, 35592,76, 0,00, 0,00, 0,00
155, 69672,91, 74353,88, 1934,92, 4452,49, 40211,84, 56605,70, 57813,59, 35583,17, 0,00, 0,00, 0,00
156, 69657,66, 74342,37, 1929,09, 4444,93, 40224,82, 56604,63, 57844,21, 35612,41, -0,07, 0,98, 0,24
157, 69649,46, 74332,13, 1930,81, 4445,25, 40236,36, 56626,09, 57908,50, 35658,65, 0,00, 0,00, 0,00
158, 69651,07, 74350,64, 1934,23, 4446,72, 40235,22, 56639,07, 57897,16, 35677,54, 0,00, 0,00, 0,00
159, 69646,55, 74355,27, 1937,20, 4448,49, 40231,04, 56616,50, 57843,92, 35666,30, 0,00, 0,00, 0,00
160, 69637,59, 74340,78, 1938,81, 4448,35, 40233,00, 56578,97, 57820,38, 35655,79, 0,00, 0,00, 0,00
161, 69626,22, 74322,01, 1932,80, 4444,73, 40236,13, 56552,73, 57835,32, 35658,74, 0,00, 0,00, 0,00
162, 69616,72, 74310,90, 1926,43, 4440,11, 40241,72, 56562,61, 57897,63, 35692,02, 0,00, 0,00, 0,00
163, 69617,55, 74332,84, 1927,68, 4441,98, 40235,35, 56572,24, 57887,89, 35709,21, 0,00, 0,00, 0,00
164, 69611,60, 74347,33, 1929,89, 4444,29, 40228,63, 56547,18, 57834,64, 35696,18, 0,00, 0,00, 0,00
165, 69604,09, 74337,79, 1927,26, 4441,38, 40224,22, 56515,82, 57815,27, 35689,83, 0,00, 0,00, 0,00
166, 69595,02, 74320,76, 1925,89, 4439,95, 40223,30, 56478,81, 57828,16, 35680,82, -0,07, 0,98, 0,23
167, 69587,41, 74314,02, 1922,09, 4433,89, 40228,31, 56484,09, 57888,42, 35710,00, 0,00, 0,00, 0,00
168, 69589,88, 74343,87, 1919,63, 4428,77, 40227,80, 56505,63, 57882,28, 35740,41, 0,00, 0,00, 0,00
169, 69588,96, 74357,63, 1926,41, 4434,21, 40224,04, 56484,22, 57826,04, 35733,69, 0,00, 0,00, 0,00
170, 69584,17, 74347,91, 1930,77, 4438,59, 40220,29, 56448,99, 57801,25, 35727,54, 0,00, 0,00, 0,00
171, 69579,86, 74334,44, 1933,05, 4440,40, 40219,86, 56411,24, 57809,93, 35719,61, 0,00, 0,00, 0,00
172, 69574,23, 74327,93, 1927,53, 4435,46, 40228,64, 56427,07, 57875,13, 35758,63, 0,00, 0,00, 0,00
173, 69581,23, 74352,20, 1925,22, 4435,32, 40228,76, 56451,81, 57872,46, 35789,93, 0,00, 0,00, 0,00
174, 69578,92, 74361,44, 1927,75, 4439,88, 40217,92, 56429,14, 57820,61, 35778,21, 0,00, 0,00, 0,00
175, 69577,70, 74350,26, 1938,37, 4449,63, 40218,45, 56372,46, 57794,05, 35746,29, 0,00, 0,00, 0,00
176, 69572,38, 74343,76, 1930,92, 4444,42, 40231,64, 56375,75, 57836,79, 35779,93, -0,06, 0,98, 0,23
177, 69560,62, 74329,49, 1924,87, 4439,23, 40241,50, 56411,42, 57913,95, 35840,42, 0,00, 0,00, 0,00
178, 69565,09, 74344,00, 1932,64, 4442,52, 40240,07, 56422,73, 57905,72, 35856,09, 0,00, 0,00, 0,00
179, 69562,43, 74354,75, 1939,57, 4445,96, 40234,39, 56400,85, 57852,57, 35843,70, 0,00, 0,00, 0,00
180, 69559,95, 74346,10, 1946,32, 4451,64, 40236,36, 56360,04, 57829,19, 35827,03, 0,00, 0,00, 0,00
181, 69551,38, 74333,30, 1944,45, 4447,89, 40245,95, 56345,28, 57852,46, 35838,38, 0,00, 0,00, 0,00
182, 69543,54, 74322,63, 1937,99, 4442,50, 40259,04, 56364,93, 57920,36, 35879,80, 0,00, 0,00, 0,00
183, 69543,34, 74340,55, 1938,75, 4446,21, 40255,13, 56378,79, 57912,59, 35895,92, 0,00, 0,00, 0,00
184, 69535,52, 74349,25, 1940,00, 4450,93, 40244,83, 56358,22, 57860,37, 35883,51, 0,00, 0,00, 0,00
185, 69531,60, 74345,16, 1943,33, 4453,23, 40243,35, 56324,07, 57840,57, 35872,07, 0,00, 0,00, 0,00
186, 69521,50, 74328,82, 1944,18, 4454,05, 40246,08, 56294,90, 57855,50, 35868,65, -0,07, 0,99, 0,24
187, 69510,16, 74317,07, 1935,86, 4445,38, 40253,12, 56303,80, 57918,20, 35897,70, 0,00, 0,00, 0,00
188, 69517,08, 74338,68, 1941,92, 4450,41, 40249,03, 56301,61, 57905,19, 35901,55, 0,00, 0,00, 0,00
189, 69520,02, 74349,45, 1947,91, 4456,45, 40247,06, 56268,30, 57852,75, 35878,86, 0,00, 0,00, 0,00
190, 69515,69, 74339,62, 1946,95, 4453,76, 40244,36, 56226,35, 57829,73, 35859,53, 0,00, 0,00, 0,00
191, 69507,38, 74323,62, 1939,82, 4446,86, 40240,98, 56194,65, 57841,60, 35853,02, 0,00, 0,00, 0,00
192, 69504,13, 74321,09, 1929,69, 4437,78, 40253,34, 56219,95, 57918,00, 35901,77, 0,00, 0,00, 0,00
193, 69507,33, 74349,16, 1930,30, 4440,04, 40252,65, 56257,26, 57925,28, 35943,68, 0,00, 0,00, 0,00
194, 69504,89, 74360,41, 1931,62, 4442,23, 40242,95, 56240,83, 57873,18, 35935,86, 0,00, 0,00, 0,00
195, 69493,94, 74358,04, 1922,56, 4435,73, 40238,86, 56238,24, 57864,93, 35956,07, 0,00, 0,00, 0,00
196, 69482,30, 74340,76, 1921,09, 4435,23, 40234,26, 56218,30, 57874,90, 35963,20, -0,07, 0,98, 0,24
197, 69478,38, 74334,45, 1916,73, 4433,29, 40240,80, 56227,46, 57934,00, 35992,32, 0,00, 0,00, 0,00
198, 69484,15, 74356,18, 1919,57, 4438,03, 40236,78, 56234,19, 57921,26, 36000,46, 0,00, 0,00, 0,00
199, 69483,84, 74357,21, 1925,74, 4443,79, 40234,59, 56201,27, 57867,30, 35975,78, 0,00, 0,00, 0,00
200, 69471,48, 74344,73, 1922,32, 4438,81, 40235,22, 56178,96, 57856,44, 35977,16, 0,00, 0,00, 0,00
201, 69462,55, 74328,45, 1919,08, 4437,51, 40241,32, 56173,04, 57883,55, 35996,59, 0,00, 0,00, 0,00
202, 69459,97, 74318,52, 1921,22, 4443,08, 40252,83, 56196,60, 57951,28, 36042,23, 0,00, 0,00, 0,00
203, 69464,48, 74338,16, 1926,12, 4450,99, 40248,41, 56204,29, 57933,77, 36053,05, 0,00, 0,00, 0,00
204, 69459,32, 74348,83, 1926,36, 4453,18, 40239,49, 56183,99, 57881,98, 36042,93, 0,00, 0,00, 0,00
205, 69451,63, 74341,34, 1925,71, 4454,84, 40234,05, 56149,03, 57858,23, 36030,77, -0,08, 0,97, 0,24
206, 69442,27, 74329,96, 1923,95, 4454,32, 40241,16, 56135,11, 57880,42, 36044,29, 0,00, 0,00, 0,00
207, 69435,24, 74324,27, 1925,87, 4455,78, 40253,03, 56150,02, 57945,46, 36081,77, 0,00, 0,00, 0,00
208, 69441,44, 74349,90, 1939,51, 4465,05, 40253,70, 56156,36, 57931,59, 36089,64, 0,00, 0,00, 0,00
209, 69442,13, 74360,77, 1945,90, 4469,12, 40248,32, 56127,87, 57872,15, 36068,38, 0,00, 0,00, 0,00
210, 69432,43, 74347,78, 1941,45, 4466,15, 40242,88, 56091,23, 57842,29, 36053,68, 0,00, 0,00, 0,00
211, 69425,32, 74338,73, 1942,79, 4466,44, 40249,95, 56071,16, 57857,11, 36057,25, 0,00, 0,00, 0,00
212, 69417,70, 74340,70, 1936,24, 4463,33, 40264,74, 56120,91, 57942,16, 36128,31, 0,00, 0,00, 0,00
213, 69423,89, 74364,48, 1941,20, 4474,17, 40258,08, 56135,02, 57928,43, 36145,21, 0,00, 0,00, 0,00
214, 69427,98, 74380,23, 1948,58, 4484,12, 40252,32, 56114,90, 57874,34, 36130,34, 0,00, 0,00, 0,00
215, 69423,98, 74369,62, 1955,42, 4490,38, 40249,99, 56081,62, 57848,30, 36115,93, -0,07, 0,98, 0,23
216, 69411,41, 74347,58, 1954,84, 4488,12, 40250,28, 56056,79, 57859,28, 36111,68, 0,00, 0,00, 0,00
217, 69407,10, 74335,24, 1954,84, 4486,58, 40259,94, 56060,95, 57915,65, 36130,92, 0,00, 0,00, 0,00
218, 69408,84, 74362,02, 1955,44, 4487,45, 40264,03, 56089,80, 57914,39, 36159,71, 0,00, 0,00, 0,00
219, 69397,76, 74371,20, 1955,15, 4488,74, 40257,86, 56081,24, 57869,49, 36158,21, 0,00, 0,00, 0,00
220, 69391,37, 74358,69, 1958,19, 4492,21, 40254,80, 56037,45, 57841,66, 36132,62, 0,00, 0,00, 0,00
221, 69378,78, 74339,75, 1951,37, 4485,77, 40260,27, 56022,79, 57862,92, 36139,06, 0,00, 0,00, 0,00
222, 69366,91, 74325,47, 1942,63, 4477,52, 40267,58, 56046,17, 57927,81, 36178,09, 0,00, 0,00, 0,00
223, 69368,84, 74343,46, 1939,42, 4476,67, 40262,93, 56065,68, 57915,96, 36196,35, 0,00, 0,00, 0,00
224, 69363,85, 74353,52, 1939,55, 4478,73, 40256,81, 56062,38, 57874,41, 36200,21, 0,00, 0,00, 0,00
225, 69352,68, 74346,55, 1938,25, 4477,68, 40254,51, 56056,18, 57869,87, 36216,17, -0,07, 0,97, 0,24
226, 69345,77, 74334,16, 1944,29, 4483,16, 40255,11, 56036,34, 57886,23, 36218,68, 0,00, 0,00, 0,00
227, 69344,19, 74323,70, 1950,30, 4490,26, 40265,32, 56028,18, 57937,39, 36227,41, 0,00, 0,00, 0,00
228, 69348,05, 74344,34, 1949,47, 4490,60, 40264,41, 56024,27, 57919,22, 36223,13, 0,00, 0,00, 0,00
229, 69339,94, 74353,61, 1947,15, 4489,01, 40259,09, 56020,67, 57877,67, 36223,19, 0,00, 0,00, 0,00
230, 69330,93, 74343,87, 1949,92, 4490,71, 40257,68, 56003,21, 57863,10, 36221,58, 0,00, 0,00, 0,00
231, 69321,12, 74329,96, 1946,66, 4487,13, 40262,80, 55998,58, 57886,70, 36237,05, 0,00, 0,00, 0,00
232, 69314,30, 74316,17, 1944,18, 4486,96, 40270,27, 56017,40, 57946,20, 36268,01, 0,00, 0,00, 0,00
233, 69320,45, 74339,09, 1945,41, 4489,21, 40273,24, 56038,23, 57938,16, 36286,22, 0,00, 0,00, 0,00
234, 69314,63, 74350,91, 1946,08, 4489,37, 40269,28, 56028,33, 57891,64, 36282,98, 0,00, 0,00, 0,00
235, 69308,29, 74343,42, 1945,25, 4489,15, 40268,23, 56006,25, 57875,93, 36280,50, -0,07, 0,97, 0,24
236, 69298,41, 74327,95, 1943,69, 4488,41, 40267,88, 55991,16, 57897,03, 36290,25, 0,00, 0,00, 0,00
237, 69290,83, 74318,66, 1942,19, 4485,75, 40272,46, 56008,13, 57961,04, 36327,35, 0,00, 0,00, 0,00
238, 69297,47, 74341,97, 1943,86, 4485,19, 40268,07, 56015,10, 57945,31, 36333,63, 0,00, 0,00, 0,00
239, 69291,45, 74356,00, 1940,11, 4479,58, 40261,48, 56021,49, 57912,77, 36346,10, 0,00, 0,00, 0,00
240, 69283,68, 74347,09, 1944,74, 4483,56, 40254,21, 55994,76, 57896,70, 36340,87, 0,00, 0,00, 0,00
241, 69276,15, 74333,61, 1942,72, 4481,50, 40255,76, 55986,45, 57924,05, 36354,64, 0,00, 0,00, 0,00
242, 69277,62, 74326,79, 1947,19, 4484,05, 40266,87, 56007,17, 57991,22, 36393,06, 0,00, 0,00, 0,00
243, 69278,58, 74340,76, 1949,32, 4489,12, 40263,45, 56021,56, 57975,48, 36405,25, 0,00, 0,00, 0,00
244, 69273,24, 74345,68, 1948,54, 4489,21, 40256,07, 56009,38, 57921,84, 36394,54, 0,00, 0,00, 0,00
245, 69265,77, 74332,09, 1950,28, 4491,18, 40250,21, 55979,29, 57894,88, 36383,74, -0,07, 0,97, 0,24
246, 69256,23, 74315,86, 1950,21, 4491,38, 40252,27, 55951,29, 57902,75, 36377,78, 0,00, 0,00, 0,00
247, 69248,12, 74309,69, 1942,19, 4483,49, 40264,74, 55981,15, 57970,99, 36424,69, 0,00, 0,00, 0,00
248, 69255,49, 74332,09, 1947,71, 4487,81, 40263,98, 55992,93, 57952,24, 36435,31, 0,00, 0,00, 0,00
249, 69253,55, 74335,82, 1954,91, 4493,33, 40256,81, 55950,26, 57886,28, 36396,26, 0,00, 0,00, 0,00
250, 69247,06, 74330,34, 1954,57, 4494,15, 40262,04, 55930,90, 57880,33, 36398,50, 0,00, 0,00, 0,00
251, 69236,56, 74315,14, 1952,56, 4493,55, 40271,79, 55920,96, 57909,37, 36414,37, 0,00, 0,00, 0,00
252, 69231,30, 74309,13, 1947,93, 4489,44, 40284,84, 55942,73, 57979,80, 36452,41, 0,00, 0,00, 0,00
253, 69228,67, 74338,39, 1942,75, 4486,02, 40283,07, 55980,37, 57980,91, 36489,02, 0,00, 0,00, 0,00
254, 69228,85, 74351,76, 1954,97, 4501,78, 40276,64, 55966,78, 57928,43, 36480,32, 0,00, 0,00, 0,00
255, 69229,01, 74338,23, 1963,11, 4510,67, 40274,24, 55915,88, 57894,44, 36447,67, -0,08, 0,97, 0,23
0, 69222,91, 74321,13, 1959,20, 4509,20, 40280,68, 55899,81, 57913,55, 36453,64, 0,00, 0,00, 0,00
1, 69210,59, 74311,55, 1946,70, 4496,28, 40290,11, 55939,84, 57984,94, 36511,17, 0,00, 0,00, 0,00
2, 69208,82, 74328,66, 1954,19, 4498,11, 40287,70, 55962,82, 57970,05, 36535,29, 0,00, 0,00, 0,00
3, 69205,49, 74336,29, 1955,96, 4495,74, 40280,95, 55952,09, 57917,19, 36531,71, 0,00, 0,00, 0,00
4, 69198,59, 74326,74, 1954,12, 4493,30, 40274,22, 55934,05, 57897,07, 36536,07, 0,00, 0,00, 0,00
5, 69194,80, 74314,18, 1959,82, 4496,90, 40283,32, 55906,96, 57910,39, 36534,15, 0,00, 0,00, 0,00
6, 69188,52, 74311,77, 1953,83, 4492,61, 40290,38, 55932,60, 57976,69, 36578,43, 0,00, 0,00, 0,00
7, 69192,35, 74336,31, 1953,92, 4493,59, 40282,78, 55941,54, 57957,87, 36587,57, 0,00, 0,00, 0,00
8, 69188,10, 74347,66, 1957,99, 4496,70, 40276,70, 55920,15, 57904,98, 36572,68, 0,00, 0,00, 0,00
9, 69183,54, 74336,06, 1960,58, 4498,42, 40275,63, 55868,38, 57876,49, 36541,88, -0,07, 0,97, 0,24
10, 69173,23, 74316,93, 1951,87, 4490,55, 40283,14, 55844,78, 57895,89, 36541,41, 0,00, 0,00, 0,00
11, 69170,80, 74309,73, 1946,64, 4485,19, 40293,67, 55870,62, 57964,31, 36582,92, 0,00, 0,00, 0,00
12, 69171,67, 74333,80, 1944,24, 4480,41, 40293,04, 55903,41, 57961,31, 36614,57, 0,00, 0,00, 0,00
13, 69160,77, 74342,59, 1942,90, 4475,85, 40284,04, 55909,27, 57914,30, 36625,79, 0,00, 0,00, 0,00
14, 69159,00, 74327,30, 1950,10, 4480,76, 40283,23, 55870,11, 57878,19, 36604,11, 0,00, 0,00, 0,00
15, 69147,45, 74312,55, 1943,17, 4473,90, 40287,92, 55852,71, 57892,89, 36604,85, 0,00, 0,00, 0,00
16, 69131,91, 74301,48, 1934,74, 4464,07, 40297,87, 55883,76, 57957,36, 36645,84, 0,00, 0,00, 0,00
17, 69133,95, 74325,27, 1931,15, 4460,63, 40295,19, 55930,59, 57959,34, 36687,77, 0,00, 0,00, 0,00
18, 69133,20, 74333,59, 1936,69, 4470,68, 40280,61, 55900,32, 57894,08, 36658,20, -0,07, 0,98, 0,23
19, 69126,12, 74322,12, 1937,02, 4473,32, 40280,39, 55862,77, 57872,57, 36637,93, 0,00, 0,00, 0,00
20, 69111,05, 74301,02, 1928,89, 4464,49, 40286,09, 55861,28, 57903,98, 36654,38, 0,00, 0,00, 0,00
21, 69107,68, 74286,91, 1928,58, 4461,94, 40295,19, 55887,41, 57977,29, 36694,30, 0,00, 0,00, 0,00
22, 69112,98, 74307,91, 1932,89, 4466,10, 40294,07, 55915,46, 57977,16, 36717,97, 0,00, 0,00, 0,00
23, 69112,10, 74313,11, 1940,20, 4472,90, 40287,74, 55896,77, 57925,32, 36697,74, 0,00, 0,00, 0,00
24, 69098,54, 74297,60, 1933,90, 4466,71, 40285,20, 55872,77, 57907,13, 36688,46, 0,00, 0,00, 0,00
25, 69086,36, 74287,67, 1926,72, 4461,90, 40291,23, 55889,24, 57944,39, 36726,29, 0,00, 0,00, 0,00
26, 69084,52, 74283,88, 1925,27, 4463,84, 40301,49, 55928,82, 58010,57, 36780,75, 0,00, 0,00, 0,00
27, 69093,80, 74312,55, 1932,98, 4472,25, 40296,02, 55949,50, 57989,09, 36796,09, 0,00, 0,00, 0,00
28, 69092,99, 74324,98, 1936,11, 4476,47, 40282,16, 55937,00, 57929,84, 36784,46, -0,07, 0,98, 0,24
29, 69084,08, 74314,02, 1933,96, 4475,96, 40273,06, 55911,68, 57902,37, 36775,30, 0,00, 0,00, 0,00
30, 69074,76, 74300,08, 1931,32, 4474,31, 40274,94, 55915,46, 57927,63, 36798,82, 0,00, 0,00, 0,00
31, 69071,49, 74291,25, 1928,20, 4472,41, 40283,39, 55936,96, 57986,48, 36835,25, 0,00, 0,00, 0,00
32, 69073,51, 74322,05, 1931,50, 4477,14, 40282,29, 55962,38, 57978,39, 36858,88, 0,00, 0,00, 0,00
33, 69070,87, 74332,87, 1938,05, 4481,14, 40273,10, 55931,17, 57914,02, 36828,10, 0,00, 0,00, 0,00
34, 69065,52, 74320,84, 1944,20, 4481,50, 40276,68, 55909,11, 57896,00, 36819,94, 0,00, 0,00, 0,00
35, 69057,59, 74306,16, 1949,41, 4482,96, 40284,82, 55892,66, 57917,59, 36820,65, 0,00, 0,00, 0,00
36, 69042,30, 74294,49, 1944,29, 4476,09, 40292,08, 55911,77, 57983,20, 36851,86, 0,00, 0,00, 0,00
37, 69043,40, 74316,84, 1941,87, 4475,06, 40292,68, 55939,17, 57980,73, 36873,27, 0,00, 0,00, 0,00
38, 69037,25, 74324,38, 1943,28, 4475,85, 40284,39, 55930,19, 57933,15, 36863,61, -0,07, 0,97, 0,23
39, 69027,46, 74311,59, 1945,63, 4475,27, 40284,79, 55896,41, 57907,91, 36845,31, 0,00, 0,00, 0,00
40, 69015,44, 74296,64, 1941,67, 4471,69, 40292,84, 55881,59, 57928,99, 36847,61, 0,00, 0,00, 0,00
41, 69003,70, 74294,02, 1936,40, 4466,37, 40309,22, 55920,80, 58008,03, 36901,39, 0,00, 0,00, 0,00
42, 69005,66, 74319,01, 1940,49, 4470,86, 40303,28, 55948,49, 57997,93, 36924,23, 0,00, 0,00, 0,00
43, 69000,19, 74323,39, 1945,27, 4477,34, 40298,76, 55938,12, 57946,63, 36914,66, 0,00, 0,00, 0,00
44, 68994,05, 74307,23, 1950,10, 4481,93, 40299,37, 55895,65, 57916,39, 36886,14, 0,00, 0,00, 0,00
45, 68985,17, 74295,48, 1943,35, 4475,56, 40307,10, 55899,90, 57950,32, 36909,55, 0,00, 0,00, 0,00
46, 68978,11, 74279,72, 1941,81, 4472,85, 40313,83, 55916,13, 58013,62, 36940,41, 0,00, 0,00, 0,00
47, 68979,42, 74303,84, 1942,46, 4473,34, 40312,58, 55945,12, 58011,67, 36968,55, 0,00, 0,00, 0,00
48, 68973,77, 74316,93, 1942,57, 4474,95, 40301,80, 55940,11, 57962,90, 36967,06, -0,07, 0,98, 0,23
49, 68970,51, 74302,63, 1948,78, 4484,54, 40296,53, 55898,67, 57930,07, 36940,41, 0,00, 0,00, 0,00
50, 68965,03, 74284,86, 1947,57, 4484,03, 40305,63, 55877,79, 57948,08, 36937,82, 0,00, 0,00, 0,00
51, 68955,84, 74274,71, 1947,04, 4481,28, 40316,55, 55905,62, 58011,58, 36977,23, 0,00, 0,00, 0,00
52, 68957,84, 74294,67, 1949,36, 4481,48, 40310,70, 55924,35, 57995,00, 36988,92, 0,00, 0,00, 0,00
53, 68958,59, 74305,89, 1957,54, 4488,86, 40302,54, 55911,39, 57941,73, 36976,89, 0,00, 0,00, 0,00
54, 68954,10, 74295,74, 1962,39, 4491,76, 40302,34, 55875,70, 57912,56, 36959,12, 0,00, 0,00, 0,00
55, 68943,04, 74280,63, 1957,81, 4482,26, 40310,68, 55868,27, 57936,55, 36969,92, 0,00, 0,00, 0,00
56, 68930,74, 74268,20, 1950,99, 4473,03, 40322,14, 55912,73, 58010,80, 37024,93, 0,00, 0,00, 0,00
57, 68933,11, 74283,80, 1958,77, 4481,77, 40321,65, 55935,93, 58000,92, 37044,57, 0,00, 0,00, 0,00
58, 68926,97, 74288,08, 1963,29, 4483,49, 40317,23, 55914,59, 57947,97, 37024,79, -0,07, 0,97, 0,23
59, 68912,08, 74275,88, 1961,12, 4478,75, 40316,06, 55894,80, 57932,84, 37020,34, 0,00, 0,00, 0,00
60, 68899,81, 74264,25, 1957,68, 4475,33, 40320,04, 55888,25, 57958,81, 37029,73, 0,00, 0,00, 0,00
61, 68895,54, 74258,53, 1950,37, 4470,93, 40327,82, 55925,31, 58034,09, 37077,83, 0,00, 0,00, 0,00
62, 68897,93, 74275,73, 1948,65, 4472,65, 40323,57, 55959,47, 58031,41, 37106,60, 0,00, 0,00, 0,00
63, 68892,32, 74276,48, 1949,36, 4475,62, 40309,92, 55942,21, 57974,97, 37089,16, 0,00, 0,00, 0,00
64, 68886,20, 74264,09, 1952,56, 4480,88, 40306,39, 55896,77, 57939,88, 37055,08, 0,00, 0,00, 0,00
65, 68878,53, 74256,16, 1947,22, 4478,02, 40317,47, 55890,94, 57966,45, 37064,18, 0,00, 0,00, 0,00
66, 68875,02, 74252,67, 1946,37, 4477,68, 40329,96, 55917,80, 58031,77, 37100,95, 0,00, 0,00, 0,00
67, 68876,85, 74278,15, 1946,03, 4477,19, 40327,98, 55945,16, 58020,84, 37123,43, 0,00, 0,00, 0,00
68, 68871,91, 74288,77, 1949,56, 4479,56, 40319,10, 55923,53, 57966,18, 37103,43, -0,06, 0,97, 0,23
69, 68864,52, 74281,15, 1949,88, 4478,53, 40318,16, 55891,94, 57945,91, 37086,53, 0,00, 0,00, 0,00
70, 68853,01, 74268,30, 1941,79, 4468,69, 40319,02, 55888,28, 57973,47, 37099,94, 0,00, 0,00, 0,00
71, 68839,26, 74266,93, 1930,72, 4455,44, 40320,76, 55933,07, 58046,61, 37157,18, 0,00, 0,00, 0,00
72, 68841,43, 74292,62, 1936,40, 4464,22, 40309,63, 55947,49, 58024,72, 37167,17, 0,00, 0,00, 0,00
73, 68843,05, 74297,98, 1942,75, 4474,01, 40303,43, 55916,80, 57962,96, 37135,81, 0,00, 0,00, 0,00
74, 68832,33, 74285,20, 1935,95, 4469,88, 40301,27, 55909,67, 57952,55, 37141,11, 0,00, 0,00, 0,00
75, 68828,24, 74272,54, 1942,25, 4477,64, 40306,32, 55892,90, 57966,92, 37138,56, 0,00, 0,00, 0,00
76, 68825,27, 74269,91, 1941,54, 4472,67, 40319,46, 55913,56, 58028,95, 37169,92, 0,00, 0,00, 0,00
77, 68826,59, 74298,49, 1941,90, 4468,11, 40320,94, 55951,55, 58025,30, 37204,45, 0,00, 0,00, 0,00
78, 68821,71, 74306,72, 1944,51, 4469,70, 40314,70, 55947,82, 57974,68, 37199,80, -0,06, 0,97, 0,24
79, 68814,38, 74292,68, 1945,79, 4469,03, 40310,97, 55914,07, 57947,48, 37181,03, 0,00, 0,00, 0,00
80, 68799,00, 74278,71, 1939,39, 4460,65, 40313,14, 55912,04, 57970,84, 37199,36, 0,00, 0,00, 0,00
81, 68792,43, 74270,55, 1933,94, 4455,24, 40320,13, 55935,44, 58030,02, 37235,10, 0,00, 0,00, 0,00
82, 68794,27, 74290,70, 1935,30, 4457,16, 40317,43, 55959,22, 58016,88, 37254,86, 0,00, 0,00, 0,00
83, 68795,00, 74298,96, 1940,94, 4464,29, 40310,12, 55934,34, 57959,52, 37231,66, 0,00, 0,00, 0,00
84, 68778,46, 74286,49, 1929,34, 4452,11, 40305,29, 55921,00, 57946,16, 37234,38, 0,00, 0,00, 0,00
85, 68769,25, 74269,39, 1933,09, 4456,18, 40310,45, 55913,73, 57970,66, 37244,58, 0,00, 0,00, 0,00
86, 68762,55, 74258,98, 1933,49, 4454,90, 40324,42, 55948,38, 58043,25, 37292,88, 0,00, 0,00, 0,00
87, 68764,65, 74274,51, 1937,36, 4457,47, 40320,63, 55960,45, 58026,47, 37298,91, 0,00, 0,00, 0,00
88, 68754,77, 74275,56, 1937,36, 4457,45, 40309,78, 55939,89, 57971,73, 37278,93, -0,07, 0,97, 0,23
89, 68744,87, 74264,65, 1938,50, 4460,58, 40313,36, 55915,82, 57954,90, 37269,61, 0,00, 0,00, 0,00
90, 68734,27, 74244,00, 1937,90, 4458,68, 40323,02, 55902,07, 57978,84, 37272,34, 0,00, 0,00, 0,00
91, 68728,44, 74239,51, 1934,43, 4452,83, 40336,27, 55933,14, 58047,52, 37315,32, 0,00, 0,00, 0,00
92, 68736,02, 74270,80, 1940,78, 4460,31, 40336,14, 55959,45, 58034,67, 37337,05, 0,00, 0,00, 0,00
93, 68739,79, 74280,88, 1953,30, 4474,46, 40327,30, 55931,84, 57973,07, 37307,47, 0,00, 0,00, 0,00
94, 68736,44, 74278,91, 1950,59, 4472,23, 40328,69, 55912,53, 57955,61, 37301,37, 0,00, 0,00, 0,00
95, 68723,99, 74263,87, 1946,28, 4472,27, 40332,29, 55917,65, 57979,48, 37324,21, 0,00, 0,00, 0,00
96, 68723,77, 74256,76, 1948,78, 4477,97, 40339,18, 55943,48, 58040,93, 37361,21, 0,00, 0,00, 0,00
97, 68718,18, 74279,38, 1941,83, 4469,92, 40329,92, 55983,54, 58035,21, 37397,20, -0,07, 0,98, 0,23
98, 68711,25, 74283,02, 1943,75, 4470,24, 40315,17, 55972,30, 57980,56, 37385,50, 0,00, 0,00, 0,00
99, 68703,76, 74271,73, 1939,82, 4465,07, 40310,79, 55955,22, 57963,95, 37382,09, 0,00, 0,00, 0,00
100, 68698,82, 74258,88, 1930,34, 4451,53, 40304,95, 55948,52, 57984,16, 37393,37, 0,00, 0,00, 0,00
101, 68694,02, 74253,72, 1931,24, 4451,60, 40311,26, 55972,10, 58043,70, 37427,73, 0,00, 0,00, 0,00
102, 68684,77, 74271,67, 1941,90, 4463,40, 40316,04, 55991,09, 58031,52, 37441,25, 0,00, 0,00, 0,00
103, 68677,70, 74280,37, 1943,46, 4465,90, 40316,98, 55981,68, 57984,63, 37432,44, 0,00, 0,00, 0,00
104, 68674,13, 74277,51, 1940,60, 4463,46, 40317,85, 55962,48, 57971,80, 37428,13, 0,00, 0,00, 0,00
105, 68664,80, 74259,00, 1935,17, 4459,42, 40320,76, 55943,44, 57990,88, 37426,36, 0,00, 0,00, 0,00
106, 68654,12, 74242,01, 1930,79, 4455,82, 40334,37, 55965,10, 58056,93, 37458,01, 0,00, 0,00, 0,00
107, 68651,01, 74261,30, 1928,46, 4453,50, 40337,27, 55995,41, 58054,41, 37480,66, -0,06, 0,99, 0,23
108, 68646,81, 74271,47, 1930,25, 4451,98, 40334,13, 55999,43, 58012,23, 37483,20, 0,00, 0,00, 0,00
109, 68647,10, 74257,77, 1935,73, 4452,94, 40329,54, 55959,36, 57982,86, 37455,46, 0,00, 0,00, 0,00
110, 68638,27, 74248,24, 1931,21, 4443,73, 40336,76, 55958,15, 58013,26, 37470,64, 0,00, 0,00, 0,00
111, 68635,59, 74245,95, 1931,30, 4444,91, 40346,04, 55988,05, 58080,58, 37509,55, 0,00, 0,00, 0,00
112, 68648,46, 74271,29, 1935,64, 4455,31, 40344,94, 56002,05, 58070,03, 37516,87, 0,00, 0,00, 0,00
113, 68646,20, 74280,74, 1936,78, 4462,95, 40333,48, 55968,97, 58010,22, 37483,38, 0,00, 0,00, 0,00
114, 68637,73, 74274,71, 1931,75, 4461,77, 40329,12, 55939,42, 57993,79, 37468,05, 0,00, 0,00, 0,00
115, 68629,04, 74265,68, 1920,93, 4450,57, 40329,21, 55950,97, 58028,79, 37499,54, 0,00, 0,00, 0,00
116, 68622,38, 74261,12, 1914,52, 4443,59, 40332,36, 56003,01, 58103,65, 37564,41, 0,00, 0,00, 0,00
117, 68628,44, 74283,52, 1920,15, 4451,69, 40320,51, 56031,22, 58084,94, 37588,21, -0,06, 0,98, 0,23
118, 68630,65, 74287,49, 1929,36, 4463,00, 40307,55, 56001,73, 58018,24, 37558,39, 0,00, 0,00, 0,00
119, 68619,59, 74273,57, 1923,21, 4458,79, 40302,56, 55980,90, 57996,43, 37551,00, 0,00, 0,00, 0,00
120, 68614,96, 74263,20, 1919,37, 4456,69, 40310,81, 56001,09, 58031,79, 37589,20, 0,00, 0,00, 0,00
121, 68616,14, 74248,54, 1922,29, 4460,87, 40317,79, 56016,11, 58086,37, 37616,18, 0,00, 0,00, 0,00
122, 68623,45, 74262,64, 1929,09, 4467,91, 40319,21, 56018,34, 58060,87, 37611,19, 0,00, 0,00, 0,00
123, 68620,68, 74273,01, 1933,60, 4468,63, 40319,28, 56001,15, 58010,46, 37596,17, 0,00, 0,00, 0,00
124, 68611,07, 74266,95, 1934,14, 4468,23, 40321,43, 55989,06, 57999,49, 37600,89, 0,00, 0,00, 0,00
125, 68601,93, 74253,14, 1933,40, 4467,69, 40327,71, 55981,20, 58027,21, 37608,48, 0,00, 0,00, 0,00
126, 68591,84, 74245,25, 1927,61, 4462,39, 40338,86, 56017,61, 58100,99, 37653,88, 0,00, 0,00, 0,00
127, 68595,45, 74267,05, 1932,29, 4467,80, 40340,45, 56041,59, 58092,27, 37673,39, -0,06, 0,97, 0,23
128, 68588,54, 74270,77, 1933,38, 4470,35, 40336,16, 56034,01, 58046,67, 37670,42, 0,00, 0,00, 0,00
129, 68582,26, 74262,17, 1936,85, 4476,79, 40338,17, 56017,14, 58035,88, 37669,68, 0,00, 0,00, 0,00
130, 68577,88, 74245,36, 1944,33, 4487,29, 40342,64, 55994,76, 58056,53, 37664,05, 0,00, 0,00, 0,00
131, 68570,30, 74232,47, 1939,77, 4481,14, 40354,08, 56013,38, 58123,88, 37695,75, 0,00, 0,00, 0,00
132, 68573,77, 74256,29, 1942,21, 4483,16, 40356,57, 56042,08, 58118,54, 37718,66, 0,00, 0,00, 0,00
133, 68572,42, 74268,95, 1946,46, 4487,09, 40353,93, 56039,22, 58074,64, 37715,64, 0,00, 0,00, 0,00
134, 68567,02, 74260,34, 1952,72, 4490,64, 40352,07, 56006,72, 58047,50, 37696,98, 0,00, 0,00, 0,00
135, 68560,71, 74248,76, 1954,62, 4489,39, 40361,26, 55994,61, 58066,19, 37700,38, 0,00, 0,00, 0,00
136, 68557,58, 74250,16, 1950,01, 4485,23, 40373,53, 56032,18, 58135,79, 37749,26, 0,00, 0,00, 0,00
137, 68561,98, 74275,72, 1953,61, 4493,17, 40363,16, 56049,61, 58116,93, 37762,60, -0,07, 0,98, 0,22
138, 68563,99, 74290,45, 1955,49, 4498,38, 40347,31, 56024,29, 58054,54, 37738,86, 0,00, 0,00, 0,00
139, 68554,41, 74275,98, 1955,08, 4500,68, 40333,14, 55977,48, 58016,79, 37706,16, 0,00, 0,00, 0,00
140, 68542,34, 74260,25, 1946,79, 4495,63, 40329,16, 55960,59, 58031,47, 37705,38, 0,00, 0,00, 0,00
141, 68536,84, 74254,98, 1942,28, 4492,66, 40335,24, 55984,37, 58091,13, 37739,22, 0,00, 0,00, 0,00
142, 68542,83, 74283,43, 1945,29, 4497,37, 40332,67, 56012,78, 58080,69, 37762,80, 0,00, 0,00, 0,00
143, 68538,38, 74296,73, 1949,14, 4502,27, 40323,91, 55992,10, 58026,49, 37745,21, 0,00, 0,00, 0,00
144, 68525,04, 74284,59, 1946,59, 4501,60, 40324,09, 55974,00, 58014,26, 37744,03, 0,00, 0,00, 0,00
145, 68513,66, 74263,31, 1942,12, 4498,87, 40326,86, 55962,44, 58038,89, 37750,33, 0,00, 0,00, 0,00
146, 68504,36, 74255,53, 1934,50, 4491,00, 40335,29, 56004,06, 58115,00, 37802,68, 0,00, 0,00, 0,00
147, 68509,21, 74282,73, 1941,41, 4498,20, 40336,20, 56030,88, 58107,38, 37822,70, -0,07, 0,97, 0,22
148, 68509,23, 74289,06, 1945,38, 4502,00, 40332,80, 56012,84, 58053,89, 37805,65, 0,00, 0,00, 0,00
149, 68504,92, 74276,61, 1947,80, 4502,76, 40333,61, 55992,32, 58038,63, 37801,34, 0,00, 0,00, 0,00
150, 68495,53, 74254,66, 1947,13, 4499,83, 40339,29, 55979,56, 58060,75, 37807,21, 0,00, 0,00, 0,00
151, 68486,66, 74245,59, 1942,79, 4492,34, 40346,15, 56008,98, 58126,87, 37848,63, 0,00, 0,00, 0,00
152, 68490,80, 74267,65, 1949,32, 4498,87, 40344,05, 56030,10, 58110,89, 37864,26, 0,00, 0,00, 0,00
153, 68485,27, 74273,62, 1950,73, 4502,96, 40338,84, 56014,34, 58057,29, 37848,30, 0,00, 0,00, 0,00
154, 68476,00, 74261,08, 1949,25, 4504,70, 40339,02, 55987,41, 58036,86, 37835,49, 0,00, 0,00, 0,00
155, 68465,60, 74242,48, 1945,54, 4501,55, 40344,59, 55974,55, 58058,14, 37839,96, 0,00, 0,00, 0,00
156, 68455,01, 74231,46, 1943,17, 4496,70, 40355,27, 56002,25, 58122,65, 37877,51, 0,00, 0,00, 0,00
157, 68455,91, 74254,03, 1943,77, 4495,54, 40357,06, 56036,36, 58115,79, 37906,95, -0,07, 0,98, 0,22
158, 68449,40, 74262,17, 1951,33, 4503,85, 40349,52, 56022,48, 58061,65, 37897,80, 0,00, 0,00, 0,00
159, 68437,13, 74256,31, 1948,27, 4502,58, 40344,41, 56012,89, 58049,82, 37904,82, 0,00, 0,00, 0,00
160, 68428,25, 74237,16, 1946,03, 4504,35, 40340,32, 55994,38, 58063,68, 37901,81, 0,00, 0,00, 0,00
161, 68424,32, 74230,16, 1939,84, 4501,46, 40350,13, 56030,57, 58135,90, 37950,02, 0,00, 0,00, 0,00
162, 68425,04, 74256,76, 1938,48, 4502,60, 40347,54, 56066,98, 58131,66, 37983,79, 0,00, 0,00, 0,00
163, 68418,30, 74267,76, 1943,33, 4508,46, 40339,51, 56053,39, 58077,99, 37970,74, 0,00, 0,00, 0,00
164, 68414,77, 74263,24, 1950,82, 4513,93, 40338,91, 56009,76, 58045,22, 37941,17, 0,00, 0,00, 0,00
165, 68408,36, 74258,59, 1945,18, 4505,64, 40347,31, 56006,99, 58072,24, 37956,34, 0,00, 0,00, 0,00
166, 68399,33, 74248,00, 1943,46, 4500,26, 40353,46, 56030,99, 58133,33, 37993,65, -0,06, 0,98, 0,22
167, 68399,27, 74263,63, 1942,59, 4498,22, 40346,30, 56034,35, 58110,58, 37993,49, 0,00, 0,00, 0,00
168, 68394,95, 74271,52, 1940,85, 4496,68, 40339,06, 56023,95, 58064,93, 37985,36, 0,00, 0,00, 0,00
169, 68387,98, 74257,97, 1940,04, 4493,68, 40333,18, 55998,47, 58045,98, 37973,91, 0,00, 0,00, 0,00
170, 68378,79, 74244,42, 1933,20, 4482,71, 40336,20, 56001,24, 58078,39, 37995,82, 0,00, 0,00, 0,00
171, 68368,73, 74239,55, 1924,33, 4471,42, 40345,66, 56066,15, 58162,21, 38074,74, 0,00, 0,00, 0,00
172, 68375,95, 74260,16, 1930,88, 4479,80, 40337,01, 56090,43, 58144,44, 38094,68, 0,00, 0,00, 0,00
173, 68379,20, 74270,58, 1940,94, 4493,06, 40330,08, 56062,82, 58082,04, 38068,15, 0,00, 0,00, 0,00
174, 68371,32, 74257,70, 1940,00, 4495,56, 40330,57, 56019,86, 58056,11, 38041,91, 0,00, 0,00, 0,00
175, 68359,88, 74249,27, 1932,44, 4486,75, 40337,41, 56027,91, 58096,16, 38071,70, 0,00, 0,00, 0,00
176, 68358,25, 74244,49, 1934,90, 4489,59, 40345,88, 56054,73, 58161,58, 38110,80, -0,07, 0,98, 0,22
177, 68360,95, 74266,95, 1940,49, 4493,62, 40347,00, 56073,73, 58148,69, 38124,88, 0,00, 0,00, 0,00
178, 68355,27, 74274,71, 1941,47, 4491,90, 40340,83, 56060,72, 58100,86, 38116,61, 0,00, 0,00, 0,00
