%OpenBCI Raw EEG Data
%
%Sample Rate = 250.0 Hz
%First Column = SampleIndex
%Other Columns = EEG data in microvolts followed by Accel Data (in G) interleaved with Aux Data
0, 84328,01, 66385,59, 1605,06, 4298,49, 40350,17, 72785,41, 60140,45, 60091,68, -0,03, 0,81, 0,64
1, 84334,31, 66395,38, 1620,64, 4312,39, 40349,12, 72784,72, 60139,07, 60098,05, 0,00, 0,00, 0,00
2, 84346,80, 66403,77, 1639,55, 4331,97, 40334,48, 72681,55, 60055,63, 60030,26, 0,00, 0,00, 0,00
3, 84346,72, 66397,71, 1624,84, 4313,19, 40335,40, 72633,42, 60028,80, 60002,65, 0,00, 0,00, 0,00
4, 84331,54, 66379,72, 1603,27, 4290,37, 40350,06, 72729,49, 60119,15, 60058,06, 0,00, 0,00, 0,00
5, 84316,03, 66354,10, 1594,71, 4284,43, 40338,82, 72766,84, 60147,20, 60068,81, 0,00, 0,00, 0,00
6, 84317,39, 66345,92, 1602,58, 4295,51, 40330,08, 72749,07, 60130,86, 60052,83, 0,00, 0,00, 0,00
7, 84315,98, 66327,66, 1596,05, 4283,18, 40302,00, 72665,98, 60053,17, 60002,61, -0,04, 0,79, 0,68
8, 84314,64, 66311,05, 1580,94, 4266,84, 40300,29, 72653,74, 60045,68, 60010,14, 0,00, 0,00, 0,00
9, 84308,30, 66291,80, 1589,45, 4277,63, 40319,02, 72719,63, 60123,04, 60035,00, 0,00, 0,00, 0,00
10, 84306,11, 66273,55, 1595,04, 4284,81, 40319,15, 72749,45, 60157,28, 60043,02, 0,00, 0,00, 0,00
11, 84300,65, 66250,19, 1583,71, 4277,19, 40298,88, 72738,68, 60142,57, 60039,42, 0,00, 0,00, 0,00
12, 84327,02, 66258,28, 1610,96, 4316,08, 40292,95, 72667,59, 60084,26, 60006,41, 0,00, 0,00, 0,00
13, 84344,59, 66267,96, 1633,26, 4341,40, 40316,67, 72615,27, 60066,27, 59970,98, 0,00, 0,00, 0,00
14, 84346,07, 66264,23, 1627,94, 4337,22, 40344,09, 72707,80, 60162,11, 60015,73, 0,00, 0,00, 0,00
15, 84327,18, 66235,23, 1614,13, 4327,23, 40327,66, 72730,63, 60184,15, 60008,51, 0,00, 0,00, 0,00
16, 84312,84, 66211,45, 1598,46, 4309,42, 40301,29, 72721,89, 60168,48, 60004,91, -0,05, 0,78, 0,68
17, 84301,26, 66188,34, 1585,21, 4298,11, 40259,94, 72626,98, 60074,09, 59952,18, 0,00, 0,00, 0,00
18, 84303,00, 66183,83, 1586,59, 4297,99, 40259,83, 72565,90, 60033,34, 59910,12, 0,00, 0,00, 0,00
19, 84301,57, 66181,26, 1590,80, 4303,60, 40283,27, 72630,13, 60105,43, 59936,63, 0,00, 0,00, 0,00
20, 84301,26, 66175,60, 1592,41, 4305,77, 40282,63, 72676,23, 60139,54, 59958,48, 0,00, 0,00, 0,00
21, 84309,80, 66177,10, 1596,54, 4307,49, 40268,21, 72678,91, 60124,04, 59955,04, 0,00, 0,00, 0,00
22, 84317,51, 66173,57, 1603,47, 4308,43, 40230,86, 72571,73, 60017,98, 59869,77, 0,00, 0,00, 0,00
23, 84312,66, 66160,11, 1593,68, 4295,63, 40215,01, 72506,28, 59962,98, 59831,53, 0,00, 0,00, 0,00
24, 84318,84, 66160,76, 1605,37, 4316,52, 40232,76, 72581,68, 60032,18, 59917,18, 0,00, 0,00, 0,00
25, 84321,48, 66159,75, 1616,79, 4334,58, 40217,43, 72591,96, 60039,93, 59934,64, 0,00, 0,00, 0,00
26, 84323,38, 66162,79, 1615,32, 4332,46, 40181,15, 72561,12, 60010,92, 59936,07, -0,06, 0,82, 0,72
27, 84323,31, 66157,00, 1606,11, 4326,81, 40118,59, 72446,20, 59911,82, 59876,12, 0,00, 0,00, 0,00
28, 84327,85, 66156,53, 1605,32, 4326,54, 40092,17, 72386,81, 59885,77, 59851,18, 0,00, 0,00, 0,00
29, 84324,50, 66154,55, 1598,91, 4330,94, 40077,44, 72463,88, 59989,13, 59923,26, 0,00, 0,00, 0,00
30, 84313,98, 66139,73, 1600,68, 4342,74, 40037,96, 72490,75, 60043,02, 59942,66, 0,00, 0,00, 0,00
31, 84305,44, 66125,33, 1602,58, 4356,71, 39987,23, 72453,36, 60035,98, 59939,91, 0,00, 0,00, 0,00
32, 84304,09, 66110,04, 1590,97, 4360,91, 39922,29, 72353,96, 59977,13, 59880,95, 0,00, 0,00, 0,00
33, 84312,66, 66104,70, 1589,81, 4365,05, 39887,16, 72283,80, 59975,07, 59871,22, 0,00, 0,00, 0,00
34, 84304,27, 66092,30, 1594,42, 4381,46, 39864,87, 72325,15, 60089,55, 59939,57, 0,00, 0,00, 0,00
35, 84278,48, 66061,90, 1582,35, 4405,95, 39809,21, 72341,95, 60168,39, 59972,10, 0,00, 0,00, 0,00
36, 84252,20, 66030,91, 1575,04, 4434,43, 39752,89, 72305,41, 60193,40, 59984,21, -0,08, 0,76, 0,70
37, 84222,63, 66005,84, 1583,42, 4470,26, 39694,89, 72169,18, 60135,49, 59917,29, 0,00, 0,00, 0,00
38, 84183,15, 65983,27, 1592,38, 4494,91, 39669,67, 72050,31, 60113,76, 59797,98, 0,00, 0,00, 0,00
39, 84133,69, 65960,17, 1589,25, 4502,78, 39664,60, 72075,79, 60206,88, 59801,22, 0,00, 0,00, 0,00
40, 84085,77, 65945,83, 1592,41, 4513,17, 39637,31, 72048,59, 60233,43, 59814,70, 0,00, 0,00, 0,00
41, 84046,24, 65922,13, 1592,38, 4515,10, 39605,93, 71970,40, 60200,91, 59784,39, 0,00, 0,00, 0,00
42, 84023,36, 65891,82, 1590,64, 4516,01, 39568,98, 71827,91, 60101,80, 59721,20, 0,00, 0,00, 0,00
43, 84017,63, 65877,65, 1608,30, 4538,99, 39580,71, 71740,80, 60057,23, 59692,03, 0,00, 0,00, 0,00
44, 84004,58, 65865,96, 1612,39, 4546,81, 39608,43, 71780,97, 60103,13, 59756,96, 0,00, 0,00, 0,00
45, 83994,90, 65850,56, 1606,46, 4542,95, 39597,48, 71793,45, 60095,19, 59803,39, 0,00, 0,00, 0,00
46, 83998,55, 65844,37, 1616,55, 4556,98, 39585,12, 71728,29, 60027,13, 59802,98, -0,10, 0,81, 0,68
47, 84019,34, 65849,98, 1625,49, 4566,04, 39569,92, 71596,16, 59913,34, 59759,60, 0,00, 0,00, 0,00
48, 84027,27, 65847,37, 1625,71, 4558,77, 39575,33, 71498,52, 59853,10, 59726,65, 0,00, 0,00, 0,00
49, 83979,86, 65791,93, 1569,67, 4494,96, 39557,09, 71500,28, 59879,18, 59730,63, 0,00, 0,00, 0,00
50, 83953,22, 65756,35, 1552,08, 4477,55, 39537,26, 71489,17, 59901,18, 59740,87, 0,00, 0,00, 0,00
51, 83949,84, 65743,50, 1550,70, 4474,08, 39526,02, 71434,45, 59908,75, 59757,07, 0,00, 0,00, 0,00
52, 83949,51, 65730,64, 1544,35, 4470,30, 39499,93, 71300,88, 59871,29, 59752,71, 0,00, 0,00, 0,00
53, 83954,60, 65723,80, 1537,13, 4460,18, 39507,98, 71177,56, 59900,64, 59842,08, 0,00, 0,00, 0,00
54, 83960,88, 65720,99, 1533,96, 4464,52, 39546,49, 71184,52, 60052,45, 60037,32, 0,00, 0,00, 0,00
55, 83973,04, 65715,22, 1532,79, 4468,58, 39562,63, 71188,31, 60160,23, 60166,36, 0,00, 0,00, 0,00
56, 83988,15, 65705,55, 1533,02, 4463,51, 39563,12, 71141,78, 60200,24, 60217,12, -0,06, 0,80, 0,64
57, 84017,84, 65704,54, 1544,06, 4474,37, 39561,31, 71006,84, 60163,05, 60181,20, 0,00, 0,00, 0,00
58, 84056,91, 65717,61, 1551,81, 4479,45, 39597,16, 70944,55, 60183,95, 60188,95, 0,00, 0,00, 0,00
59, 84077,16, 65721,93, 1548,93, 4470,24, 39631,39, 70985,12, 60267,59, 60234,51, 0,00, 0,00, 0,00
60, 84090,79, 65720,59, 1545,11, 4461,54, 39642,29, 71007,53, 60293,88, 60275,46, 0,00, 0,00, 0,00
61, 84108,23, 65724,30, 1559,53, 4482,33, 39665,89, 70988,96, 60265,91, 60296,67, 0,00, 0,00, 0,00
62, 84123,27, 65720,79, 1569,72, 4499,47, 39671,62, 70894,10, 60158,18, 60253,28, 0,00, 0,00, 0,00
63, 84127,56, 65711,24, 1566,59, 4496,97, 39691,24, 70831,31, 60085,87, 60213,23, 0,00, 0,00, 0,00
64, 84126,60, 65713,43, 1569,96, 4507,92, 39732,66, 70911,38, 60131,64, 60257,89, 0,00, 0,00, 0,00
65, 84105,99, 65695,22, 1569,27, 4515,61, 39738,29, 70950,13, 60135,31, 60273,29, 0,00, 0,00, 0,00
66, 84079,44, 65664,70, 1570,48, 4522,14, 39736,50, 70931,05, 60102,14, 60249,55, -0,09, 0,81, 0,59
67, 84059,86, 65623,36, 1558,68, 4519,08, 39716,37, 70840,23, 60022,70, 60178,00, 0,00, 0,00, 0,00
68, 84045,87, 65597,43, 1559,24, 4522,38, 39729,46, 70805,85, 60020,22, 60139,24, 0,00, 0,00, 0,00
69, 84030,11, 65572,93, 1558,56, 4526,09, 39762,05, 70907,91, 60137,23, 60184,89, 0,00, 0,00, 0,00
70, 84008,96, 65528,90, 1564,04, 4538,43, 39767,44, 70952,10, 60200,53, 60209,50, 0,00, 0,00, 0,00
71, 83990,81, 65483,99, 1567,97, 4543,42, 39770,66, 70951,77, 60221,32, 60220,14, 0,00, 0,00, 0,00
72, 83982,20, 65437,41, 1570,21, 4541,43, 39750,52, 70876,42, 60171,09, 60182,27, 0,00, 0,00, 0,00
73, 83980,09, 65409,72, 1575,31, 4539,35, 39759,04, 70828,14, 60151,52, 60156,01, 0,00, 0,00, 0,00
74, 83982,43, 65403,68, 1576,42, 4539,42, 39789,41, 70912,23, 60223,80, 60217,72, 0,00, 0,00, 0,00
75, 83986,25, 65377,38, 1566,10, 4525,92, 39786,62, 70964,95, 60239,54, 60254,82, 0,00, 0,00, 0,00
76, 83976,75, 65334,73, 1560,73, 4513,78, 39777,21, 70965,98, 60202,66, 60268,88, -0,06, 0,85, 0,55
77, 83970,38, 65299,48, 1572,09, 4520,22, 39762,46, 70853,98, 60082,00, 60189,47, 0,00, 0,00, 0,00
78, 83966,13, 65271,02, 1572,36, 4512,12, 39780,09, 70798,32, 60029,72, 60140,68, 0,00, 0,00, 0,00
79, 83949,55, 65243,31, 1563,12, 4495,58, 39807,61, 70878,25, 60085,02, 60173,66, 0,00, 0,00, 0,00
80, 83920,76, 65197,71, 1556,11, 4485,17, 39806,24, 70909,37, 60097,36, 60180,80, 0,00, 0,00, 0,00
81, 83891,77, 65148,45, 1551,05, 4479,09, 39803,07, 70892,82, 60085,80, 60163,47, 0,00, 0,00, 0,00
82, 83862,09, 65087,59, 1543,23, 4475,69, 39779,58, 70794,41, 60025,65, 60078,04, 0,00, 0,00, 0,00
83, 83831,55, 65035,39, 1537,71, 4472,05, 39782,73, 70730,15, 60017,81, 59997,36, 0,00, 0,00, 0,00
84, 83796,42, 64994,63, 1527,09, 4462,19, 39800,21, 70792,73, 60109,07, 60005,34, 0,00, 0,00, 0,00
85, 83757,35, 64936,11, 1528,30, 4470,42, 39795,58, 70806,32, 60150,60, 60004,78, 0,00, 0,00, 0,00
86, 83718,32, 64872,38, 1526,74, 4474,95, 39782,55, 70746,04, 60137,37, 59976,66, -0,08, 0,87, 0,51
87, 83690,47, 64808,46, 1513,37, 4463,11, 39761,29, 70638,62, 60090,00, 59930,01, 0,00, 0,00, 0,00
88, 83657,64, 64741,33, 1492,67, 4444,62, 39756,00, 70594,56, 60090,76, 59922,59, 0,00, 0,00, 0,00
89, 83626,68, 64689,03, 1491,60, 4441,72, 39774,75, 70663,72, 60164,37, 59974,69, 0,00, 0,00, 0,00
90, 83596,93, 64628,50, 1487,11, 4434,83, 39770,23, 70693,16, 60183,99, 60004,11, 0,00, 0,00, 0,00
91, 83579,07, 64571,64, 1489,25, 4430,88, 39779,33, 70666,91, 60160,46, 60002,72, 0,00, 0,00, 0,00
92, 83574,71, 64517,61, 1490,53, 4423,77, 39781,84, 70570,84, 60085,93, 59953,12, 0,00, 0,00, 0,00
93, 83574,82, 64477,20, 1492,25, 4416,91, 39809,89, 70513,38, 60053,39, 59919,19, 0,00, 0,00, 0,00
94, 83574,51, 64455,01, 1493,72, 4414,45, 39863,35, 70610,79, 60127,62, 59986,89, 0,00, 0,00, 0,00
95, 83568,79, 64426,38, 1489,32, 4400,68, 39878,02, 70662,04, 60148,86, 60017,85, -0,02, 0,88, 0,46
96, 83569,34, 64397,45, 1488,04, 4382,31, 39875,91, 70635,91, 60106,92, 59993,51, 0,00, 0,00, 0,00
97, 83578,20, 64367,52, 1484,25, 4365,14, 39881,88, 70586,09, 60052,63, 59973,15, 0,00, 0,00, 0,00
98, 83581,98, 64347,86, 1485,43, 4353,63, 39902,85, 70582,63, 60038,10, 59977,53, 0,00, 0,00, 0,00
99, 83577,06, 64343,36, 1485,45, 4334,72, 39929,42, 70682,54, 60084,26, 60028,49, 0,00, 0,00, 0,00
100, 83564,59, 64325,75, 1493,68, 4330,27, 39937,20, 70732,67, 60083,86, 60042,24, 0,00, 0,00, 0,00
101, 83555,60, 64306,39, 1494,33, 4324,26, 39940,73, 70734,59, 60048,83, 60033,01, 0,00, 0,00, 0,00
102, 83545,30, 64273,00, 1483,11, 4303,94, 39931,01, 70690,36, 59980,61, 60001,22, 0,00, 0,00, 0,00
103, 83537,70, 64255,41, 1485,59, 4295,42, 39946,48, 70688,91, 59959,63, 59995,01, 0,00, 0,00, 0,00
104, 83530,16, 64256,34, 1484,18, 4288,16, 39975,51, 70803,40, 60024,07, 60055,52, 0,00, 0,00, 0,00
105, 83513,91, 64238,91, 1486,01, 4287,62, 39980,90, 70856,34, 60044,00, 60072,19, 0,00, 0,91, 0,41
106, 83499,88, 64221,88, 1492,83, 4293,57, 39980,03, 70842,80, 60030,64, 60050,71, 0,00, 0,00, 0,00
107, 83502,05, 64202,37, 1486,12, 4284,11, 39978,26, 70791,52, 60008,93, 60021,43, 0,00, 0,00, 0,00
108, 83503,41, 64191,61, 1486,57, 4280,60, 39999,92, 70762,24, 60022,61, 59997,64, 0,00, 0,00, 0,00
109, 83504,91, 64200,89, 1482,48, 4269,14, 40044,60, 70867,30, 60121,54, 60058,49, 0,00, 0,00, 0,00
110, 83504,51, 64189,34, 1474,34, 4255,48, 40076,86, 70948,03, 60187,84, 60113,27, 0,00, 0,00, 0,00
111, 83491,77, 64160,90, 1459,52, 4232,41, 40095,39, 70942,16, 60186,79, 60110,90, 0,00, 0,00, 0,00
112, 83488,26, 64133,30, 1440,93, 4206,78, 40113,85, 70873,65, 60144,83, 60074,78, 0,00, 0,00, 0,00
113, 83497,27, 64120,85, 1433,64, 4190,24, 40162,42, 70851,34, 60141,25, 60069,44, 0,00, 0,00, 0,00
114, 83494,45, 64116,29, 1419,43, 4165,23, 40218,63, 70937,95, 60188,33, 60122,93, 0,00, 0,00, 0,00
115, 83496,34, 64112,94, 1419,69, 4157,51, 40264,16, 70981,34, 60190,65, 60152,32, 0,07, 0,90, 0,34
116, 83499,37, 64104,29, 1420,88, 4150,07, 40304,39, 70969,54, 60153,10, 60152,92, 0,00, 0,00, 0,00
117, 83500,48, 64081,76, 1414,73, 4132,28, 40324,47, 70890,73, 60072,46, 60111,06, 0,00, 0,00, 0,00
118, 83478,29, 64054,15, 1377,78, 4074,81, 40334,17, 70850,65, 60014,14, 60081,18, 0,00, 0,00, 0,00
119, 83452,47, 64048,25, 1349,73, 4027,94, 40349,84, 70924,77, 60013,67, 60111,19, 0,00, 0,00, 0,00
120, 83423,03, 64025,07, 1329,82, 3993,50, 40360,39, 70964,69, 59987,97, 60120,31, 0,00, 0,00, 0,00
121, 83383,47, 63987,41, 1294,14, 3945,49, 40351,54, 70955,50, 59937,83, 60104,73, 0,00, 0,00, 0,00
122, 83365,92, 63955,56, 1274,61, 3910,39, 40341,05, 70882,99, 59866,11, 60049,52, 0,00, 0,00, 0,00
123, 83356,38, 63956,14, 1270,45, 3888,44, 40360,63, 70860,64, 59842,86, 60023,35, 0,00, 0,00, 0,00
124, 83342,52, 63978,60, 1276,40, 3872,91, 40394,70, 70934,91, 59871,98, 60041,97, 0,00, 0,00, 0,00
125, 83328,89, 63987,66, 1284,35, 3853,49, 40424,69, 70987,98, 59887,43, 60054,44, 0,12, 0,95, 0,29
126, 83321,84, 63986,70, 1290,21, 3826,55, 40452,10, 71001,16, 59881,44, 60049,25, 0,00, 0,00, 0,00
127, 83331,86, 63989,91, 1297,74, 3803,73, 40484,89, 70972,44, 59862,91, 60025,99, 0,00, 0,00, 0,00
128, 83329,96, 64008,80, 1300,80, 3770,94, 40520,92, 70959,32, 59852,89, 60001,56, 0,00, 0,00, 0,00
129, 83318,16, 64042,42, 1297,65, 3729,57, 40559,65, 71052,39, 59887,47, 60036,20, 0,00, 0,00, 0,00
130, 83313,15, 64068,17, 1310,89, 3712,67, 40594,77, 71112,48, 59895,57, 60055,36, 0,00, 0,00, 0,00
131, 83303,23, 64072,97, 1314,35, 3689,13, 40614,04, 71114,91, 59870,98, 60041,70, 0,00, 0,00, 0,00
132, 83284,36, 64057,21, 1319,98, 3673,17, 40632,03, 71023,09, 59806,29, 59961,21, 0,00, 0,00, 0,00
133, 83276,54, 64068,75, 1310,86, 3648,25, 40672,17, 71024,81, 59811,41, 59958,91, 0,00, 0,00, 0,00
134, 83276,18, 64099,44, 1308,85, 3638,62, 40705,59, 71121,51, 59853,97, 59999,57, 0,00, 0,00, 0,00
135, 83266,55, 64099,97, 1304,85, 3629,90, 40723,85, 71184,13, 59876,79, 60022,39, 0,16, 0,96, 0,23
136, 83250,14, 64085,87, 1304,00, 3625,70, 40733,15, 71184,25, 59874,73, 60004,17, 0,00, 0,00, 0,00
137, 83236,44, 64055,71, 1301,70, 3621,03, 40734,11, 71108,81, 59851,13, 59938,17, 0,00, 0,00, 0,00
138, 83235,79, 64059,63, 1305,77, 3622,14, 40764,04, 71084,45, 59871,85, 59907,39, 0,00, 0,00, 0,00
139, 83244,06, 64094,12, 1310,57, 3628,29, 40807,55, 71189,43, 59948,20, 59956,05, 0,00, 0,00, 0,00
140, 83234,41, 64096,48, 1314,24, 3626,82, 40828,01, 71235,34, 59975,11, 59960,81, 0,00, 0,00, 0,00
141, 83217,02, 64084,48, 1306,75, 3603,12, 40841,24, 71241,71, 59970,15, 59945,43, 0,00, 0,00, 0,00
142, 83199,02, 64062,46, 1305,90, 3585,38, 40862,14, 71194,91, 59944,05, 59902,43, 0,00, 0,00, 0,00
143, 83187,13, 64071,96, 1313,70, 3572,79, 40901,75, 71192,23, 59934,70, 59883,99, 0,00, 0,00, 0,00
144, 83195,07, 64118,75, 1333,75, 3572,93, 40956,73, 71286,55, 59953,43, 59921,70, 0,00, 0,00, 0,00
145, 83186,26, 64133,21, 1341,53, 3558,60, 40984,85, 71318,65, 59926,77, 59927,68, 0,19, 0,98, 0,19
146, 83175,29, 64143,31, 1357,24, 3554,69, 41019,27, 71299,96, 59888,75, 59909,91, 0,00, 0,00, 0,00
147, 83169,61, 64145,01, 1366,61, 3541,10, 41057,16, 71237,60, 59851,02, 59872,59, 0,00, 0,00, 0,00
148, 83168,07, 64168,53, 1374,48, 3530,55, 41098,64, 71217,62, 59834,75, 59859,89, 0,00, 0,00, 0,00
149, 83176,49, 64224,02, 1385,94, 3526,23, 41151,28, 71306,45, 59863,58, 59910,21, 0,00, 0,00, 0,00
150, 83171,73, 64242,53, 1395,84, 3523,84, 41180,88, 71345,89, 59861,57, 59928,11, 0,00, 0,00, 0,00
151, 83163,09, 64245,68, 1402,62, 3514,39, 41201,28, 71341,42, 59843,13, 59922,88, 0,00, 0,00, 0,00
152, 83153,31, 64233,88, 1402,21, 3505,09, 41222,27, 71287,87, 59827,19, 59897,64, 0,00, 0,00, 0,00
153, 83157,12, 64257,35, 1423,05, 3517,96, 41254,84, 71240,15, 59822,70, 59861,05, 0,00, 0,00, 0,00
154, 83173,19, 64314,10, 1435,52, 3526,41, 41300,79, 71302,40, 59863,58, 59885,44, 0,00, 0,00, 0,00
155, 83171,48, 64335,85, 1437,87, 3525,47, 41341,50, 71367,87, 59915,93, 59925,58, 0,20, 1,00, 0,16
156, 83161,85, 64342,27, 1449,53, 3529,05, 41365,55, 71354,61, 59928,11, 59908,15, 0,00, 0,00, 0,00
157, 83148,91, 64337,24, 1454,63, 3525,74, 41394,38, 71304,84, 59947,91, 59879,45, 0,00, 0,00, 0,00
158, 83147,32, 64371,73, 1461,78, 3532,16, 41431,48, 71314,29, 59994,52, 59890,51, 0,00, 0,00, 0,00
159, 83143,41, 64432,12, 1475,98, 3545,97, 41473,23, 71396,97, 60044,25, 59932,54, 0,00, 0,00, 0,00
160, 83122,09, 64456,08, 1497,81, 3561,04, 41508,06, 71430,45, 60066,13, 59943,11, 0,00, 0,00, 0,00
161, 83092,85, 64464,57, 1507,25, 3561,84, 41536,16, 71425,73, 60076,19, 59940,80, 0,00, 0,00, 0,00
162, 83051,59, 64453,62, 1529,22, 3574,67, 41558,89, 71344,87, 60058,15, 59886,29, 0,00, 0,00, 0,00
163, 83024,41, 64477,94, 1547,93, 3581,89, 41602,14, 71329,64, 60073,46, 59882,89, 0,00, 0,00, 0,00
164, 83010,53, 64533,29, 1567,93, 3593,74, 41641,70, 71378,23, 60079,77, 59905,69, 0,22, 1,00, 0,13
165, 82975,73, 64550,74, 1572,91, 3589,82, 41671,38, 71405,28, 60067,99, 59927,33, 0,00, 0,00, 0,00
166, 82939,48, 64548,33, 1580,63, 3591,95, 41692,57, 71385,79, 60039,18, 59927,04, 0,00, 0,00, 0,00
167, 82902,20, 64531,61, 1589,14, 3598,92, 41710,16, 71283,40, 59988,70, 59867,92, 0,00, 0,00, 0,00
168, 82868,82, 64537,04, 1591,85, 3597,56, 41739,42, 71243,92, 59970,76, 59851,93, 0,00, 0,00, 0,00
169, 82851,27, 64580,87, 1597,46, 3595,88, 41770,65, 71297,99, 59963,20, 59891,30, 0,00, 0,00, 0,00
170, 82827,90, 64600,03, 1606,33, 3605,92, 41793,04, 71307,65, 59938,44, 59907,28, 0,00, 0,00, 0,00
171, 82778,41, 64579,69, 1601,64, 3602,03, 41805,11, 71263,98, 59905,76, 59894,61, 0,00, 0,00, 0,00
172, 82723,78, 64542,52, 1592,76, 3588,59, 41805,88, 71155,77, 59866,48, 59841,50, 0,00, 0,00, 0,00
173, 82682,20, 64528,01, 1587,15, 3577,49, 41818,79, 71092,83, 59853,19, 59825,58, 0,00, 0,00, 0,00
174, 82646,45, 64545,76, 1586,44, 3569,71, 41837,08, 71090,81, 59842,68, 59845,25, 0,21, 1,03, 0,11
175, 82590,50, 64538,60, 1573,72, 3555,42, 41834,37, 71046,20, 59813,96, 59840,36, 0,00, 0,00, 0,00
176, 82523,76, 64513,14, 1575,46, 3555,49, 41840,72, 70936,97, 59783,29, 59795,00, 0,00, 0,00, 0,00
177, 82462,34, 64488,89, 1564,09, 3533,30, 41857,62, 70814,82, 59792,46, 59749,63, 0,00, 0,00, 0,00
178, 82429,74, 64507,87, 1564,51, 3522,75, 41892,00, 70747,59, 59825,16, 59735,28, 0,00, 0,00, 0,00
179, 82402,81, 64557,60, 1560,84, 3509,58, 41927,58, 70762,23, 59858,95, 59762,64, 0,00, 0,00, 0,00
180, 82352,01, 64570,37, 1550,85, 3493,73, 41940,99, 70733,34, 59864,27, 59760,88, 0,00, 0,00, 0,00
181, 82282,11, 64553,91, 1540,33, 3476,34, 41961,13, 70668,46, 59862,86, 59747,78, 0,00, 0,00, 0,00
182, 82209,78, 64524,84, 1532,99, 3463,78, 41994,05, 70587,32, 59885,69, 59730,77, 0,00, 0,00, 0,00
183, 82161,70, 64536,77, 1536,35, 3463,40, 42035,09, 70547,55, 59935,53, 59735,46, 0,00, 0,00, 0,00
184, 82123,70, 64575,35, 1554,79, 3476,05, 42082,03, 70561,39, 59979,96, 59761,99, 0,21, 1,02, 0,11
185, 82064,20, 64583,64, 1566,32, 3482,20, 42116,92, 70537,27, 59991,12, 59765,55, 0,00, 0,00, 0,00
186, 81998,63, 64576,22, 1566,57, 3473,98, 42144,86, 70492,21, 59995,66, 59763,96, 0,00, 0,00, 0,00
187, 81933,27, 64555,37, 1566,92, 3465,41, 42170,79, 70426,16, 59987,83, 59748,74, 0,00, 0,00, 0,00
188, 81887,96, 64573,43, 1568,96, 3460,70, 42204,81, 70418,52, 59979,92, 59770,17, 0,00, 0,00, 0,00
189, 81862,86, 64627,36, 1569,56, 3460,16, 42241,35, 70500,77, 59968,16, 59850,06, 0,00, 0,00, 0,00
190, 81812,21, 64630,96, 1580,13, 3468,01, 42260,42, 70521,31, 59901,76, 59886,49, 0,00, 0,00, 0,00
191, 81741,98, 64606,08, 1586,64, 3467,16, 42275,51, 70485,80, 59797,02, 59886,25, 0,00, 0,00, 0,00
192, 81669,41, 64577,61, 1589,68, 3459,38, 42291,09, 70425,74, 59723,39, 59871,09, 0,00, 0,00, 0,00
193, 81623,29, 64595,55, 1601,68, 3466,51, 42308,30, 70409,06, 59690,69, 59878,93, 0,00, 0,00, 0,00
194, 81588,40, 64628,59, 1593,68, 3458,66, 42324,90, 70482,85, 59692,61, 59952,47, 0,17, 1,04, 0,13
195, 81537,66, 64614,11, 1598,55, 3464,32, 42329,38, 70507,59, 59691,61, 59998,29, 0,00, 0,00, 0,00
196, 81476,71, 64582,19, 1596,38, 3461,48, 42325,13, 70473,88, 59698,31, 60007,79, 0,00, 0,00, 0,00
197, 81419,36, 64542,22, 1583,80, 3442,86, 42333,58, 70440,60, 59775,34, 60031,08, 0,00, 0,00, 0,00
198, 81378,81, 64533,91, 1590,30, 3447,56, 42338,23, 70408,69, 59845,30, 60040,23, 0,00, 0,00, 0,00
199, 81365,29, 64571,41, 1609,17, 3465,48, 42350,47, 70414,03, 59886,67, 60065,39, 0,00, 0,00, 0,00
200, 81339,96, 64585,65, 1615,87, 3473,17, 42358,14, 70391,79, 59910,56, 60081,13, 0,00, 0,00, 0,00
201, 81297,16, 64582,61, 1621,86, 3480,66, 42362,66, 70331,91, 59918,86, 60078,25, 0,00, 0,00, 0,00
202, 81235,29, 64573,56, 1623,21, 3482,71, 42373,39, 70231,99, 59924,46, 60044,52, 0,00, 0,00, 0,00
203, 81200,98, 64645,00, 1629,35, 3494,27, 42398,15, 70179,52, 59927,48, 60043,96, 0,00, 0,00, 0,00
204, 81175,68, 64727,86, 1639,55, 3510,86, 42417,98, 70156,05, 59882,91, 60055,31, 0,15, 1,01, 0,13
205, 81123,91, 64737,20, 1633,93, 3513,49, 42416,21, 70094,73, 59804,68, 60043,60, 0,00, 0,00, 0,00
206, 81069,73, 64720,10, 1630,20, 3517,45, 42422,83, 69994,15, 59718,56, 60007,50, 0,00, 0,00, 0,00
207, 81010,92, 64671,84, 1618,78, 3511,62, 42436,48, 69891,51, 59659,22, 59982,34, 0,00, 0,00, 0,00
208, 80976,14, 64625,51, 1623,16, 3520,76, 42453,07, 69808,81, 59587,89, 59960,25, 0,00, 0,00, 0,00
209, 80948,70, 64574,99, 1630,45, 3526,86, 42456,38, 69738,58, 59471,22, 59939,06, 0,00, 0,00, 0,00
210, 80897,69, 64463,64, 1628,86, 3522,88, 42450,79, 69614,77, 59352,51, 59886,13, 0,00, 0,00, 0,00
211, 80858,64, 64343,07, 1631,43, 3525,94, 42458,46, 69486,43, 59285,92, 59843,95, 0,00, 0,00, 0,00
212, 80817,16, 64209,50, 1616,72, 3513,18, 42465,70, 69352,16, 59269,00, 59803,75, 0,00, 0,00, 0,00
213, 80782,09, 64079,14, 1609,86, 3507,30, 42461,81, 69218,27, 59242,69, 59751,93, 0,00, 0,00, 0,00
214, 80768,12, 63976,64, 1620,14, 3523,51, 42471,84, 69095,86, 59191,66, 59697,21, 0,11, 1,01, 0,16
215, 80743,73, 63852,61, 1623,21, 3537,97, 42477,66, 68946,14, 59148,84, 59631,73, 0,00, 0,00, 0,00
216, 80710,18, 63710,70, 1614,87, 3538,77, 42478,80, 68777,63, 59121,46, 59561,65, 0,00, 0,00, 0,00
217, 80679,80, 63553,96, 1604,32, 3529,99, 42486,84, 68621,26, 59134,38, 59511,25, 0,00, 0,00, 0,00
218, 80675,29, 63420,37, 1616,23, 3542,26, 42492,09, 68458,88, 59108,80, 59436,30, 0,00, 0,00, 0,00
219, 80678,46, 63266,14, 1628,57, 3554,66, 42492,34, 68299,46, 59018,75, 59346,65, 0,00, 0,00, 0,00
220, 80657,45, 63023,40, 1631,90, 3557,48, 42490,64, 68105,49, 58912,25, 59237,24, 0,00, 0,00, 0,00
221, 80633,38, 62780,08, 1637,04, 3570,04, 42493,13, 67894,13, 58827,24, 59122,57, 0,00, 0,00, 0,00
222, 80616,39, 62572,86, 1638,67, 3579,50, 42511,21, 67701,73, 58808,53, 59033,64, 0,00, 0,00, 0,00
223, 80618,45, 62427,46, 1640,46, 3584,77, 42530,92, 67558,66, 58808,91, 58983,70, 0,00, 0,00, 0,00
224, 80625,06, 62321,67, 1641,76, 3587,97, 42537,00, 67427,97, 58757,95, 58934,46, 0,08, 1,00, 0,19
225, 80614,94, 62201,95, 1637,00, 3588,21, 42539,13, 67270,26, 58705,56, 58870,40, 0,00, 0,00, 0,00
226, 80597,28, 62077,18, 1635,61, 3590,43, 42542,12, 67084,78, 58670,93, 58786,88, 0,00, 0,00, 0,00
227, 80581,12, 61970,72, 1629,91, 3588,64, 42556,71, 66913,37, 58689,73, 58725,16, 0,00, 0,00, 0,00
228, 80582,15, 61909,48, 1624,66, 3590,20, 42572,50, 66775,77, 58711,64, 58687,05, 0,00, 0,00, 0,00
229, 80594,09, 61880,67, 1635,45, 3602,63, 42581,48, 66650,46, 58690,34, 58645,48, 0,00, 0,00, 0,00
230, 80591,80, 61834,24, 1640,69, 3606,92, 42591,79, 66514,05, 58676,32, 58601,71, 0,00, 0,00, 0,00
231, 80583,49, 61771,88, 1640,64, 3606,92, 42598,02, 66374,13, 58675,54, 58563,47, 0,00, 0,00, 0,00
232, 80579,40, 61698,75, 1646,43, 3608,76, 42614,45, 66246,32, 58713,18, 58533,14, 0,00, 0,00, 0,00
233, 80593,91, 61650,38, 1645,13, 3605,72, 42635,64, 66171,40, 58756,30, 58530,30, 0,00, 0,00, 0,00
234, 80616,08, 61615,71, 1640,75, 3608,11, 42642,30, 66124,93, 58751,63, 58538,86, 0,06, 0,96, 0,21
235, 80620,30, 61539,43, 1646,18, 3620,36, 42642,10, 66027,37, 58726,66, 58508,89, 0,00, 0,00, 0,00
236, 80622,88, 61454,71, 1641,02, 3619,71, 42651,95, 65952,27, 58740,65, 58505,87, 0,00, 0,00, 0,00
237, 80623,14, 61376,99, 1644,73, 3624,87, 42668,34, 65871,33, 58789,24, 58496,61, 0,00, 0,00, 0,00
238, 80644,48, 61333,99, 1638,72, 3615,57, 42686,76, 65860,93, 58858,36, 58534,66, 0,00, 0,00, 0,00
239, 80672,94, 61312,46, 1647,97, 3625,21, 42690,13, 65840,95, 58867,72, 58542,30, 0,00, 0,00, 0,00
240, 80685,57, 61264,32, 1655,10, 3637,28, 42697,15, 65815,73, 58893,89, 58557,97, 0,00, 0,00, 0,00
241, 80681,84, 61190,38, 1656,80, 3644,85, 42704,50, 65776,80, 58938,55, 58570,80, 0,00, 0,00, 0,00
242, 80673,91, 61109,36, 1656,13, 3647,27, 42719,97, 65763,81, 59040,84, 58604,02, 0,00, 0,00, 0,00
243, 80676,56, 61061,48, 1661,74, 3660,46, 42729,98, 65760,59, 59118,13, 58634,08, 0,05, 0,92, 0,20
244, 80675,02, 61029,56, 1656,85, 3663,50, 42732,98, 65759,59, 59132,77, 58662,44, 0,00, 0,00, 0,00
245, 80651,38, 60974,08, 1651,32, 3668,39, 42723,50, 65711,87, 59127,58, 58657,30, 0,00, 0,00, 0,00
246, 80625,76, 60912,84, 1649,16, 3670,51, 42725,67, 65650,18, 59138,94, 58644,20, 0,00, 0,00, 0,00
247, 80597,21, 60851,59, 1645,67, 3674,76, 42735,95, 65604,31, 59194,26, 58650,80, 0,00, 0,00, 0,00
248, 80585,39, 60830,61, 1640,35, 3678,56, 42748,31, 65586,30, 59241,80, 58668,72, 0,00, 0,00, 0,00
249, 80584,79, 60821,96, 1642,14, 3686,99, 42754,26, 65575,10, 59232,64, 58683,36, 0,00, 0,00, 0,00
250, 80554,61, 60776,25, 1640,53, 3690,03, 42752,23, 65511,57, 59199,62, 58661,91, 0,00, 0,00, 0,00
251, 80507,98, 60712,84, 1629,40, 3685,27, 42751,15, 65436,47, 59184,38, 58639,33, 0,00, 0,00, 0,00
252, 80459,41, 60634,04, 1620,86, 3684,08, 42752,00, 65358,71, 59201,34, 58620,49, 0,00, 0,00, 0,00
253, 80431,09, 60595,04, 1624,17, 3694,43, 42755,15, 65285,73, 59195,71, 58599,48, 0,04, 0,93, 0,20
254, 80391,20, 60556,71, 1627,97, 3697,74, 42739,21, 65173,35, 59104,18, 58541,38, 0,00, 0,00, 0,00
255, 80328,68, 60498,13, 1639,57, 3714,08, 42719,17, 64989,48, 58984,64, 58427,12, 0,00, 0,00, 0,00
0, 80268,77, 60439,54, 1641,31, 3719,73, 42711,01, 64798,89, 58900,22, 58314,34, 0,00, 0,00, 0,00
1, 80205,37, 60380,06, 1636,73, 3719,46, 42711,14, 64619,81, 58867,90, 58213,13, 0,00, 0,00, 0,00
2, 80166,97, 60367,28, 1630,83, 3715,75, 42718,21, 64490,17, 58853,91, 58158,45, 0,00, 0,00, 0,00
3, 80130,45, 60383,37, 1641,47, 3736,36, 42703,27, 64300,33, 58747,42, 58058,23, 0,00, 0,00, 0,00
4, 80070,12, 60379,35, 1655,33, 3761,78, 42691,38, 64023,26, 58605,24, 57919,27, 0,00, 0,00, 0,00
5, 80000,42, 60377,71, 1662,86, 3775,97, 42675,49, 63697,51, 58458,08, 57765,42, 0,00, 0,00, 0,00
6, 79933,48, 60398,46, 1665,07, 3786,65, 42670,69, 63369,00, 58357,79, 57617,01, 0,00, 0,00, 0,00
7, 79885,16, 60453,42, 1662,48, 3791,62, 42668,43, 63083,62, 58270,41, 57497,51, 0,01, 0,98, 0,19
8, 79859,14, 60524,21, 1669,25, 3800,89, 42667,85, 62822,97, 58155,41, 57385,87, 0,00, 0,00, 0,00
9, 79827,48, 60570,95, 1677,97, 3808,69, 42667,40, 62559,60, 58077,00, 57275,65, 0,00, 0,00, 0,00
10, 79803,46, 60624,14, 1677,14, 3813,86, 42683,25, 62339,55, 58064,00, 57202,67, 0,00, 0,00, 0,00
11, 79784,28, 60686,19, 1663,26, 3813,74, 42715,23, 62191,34, 58132,06, 57177,14, 0,00, 0,00, 0,00
12, 79783,27, 60763,75, 1641,69, 3801,05, 42731,55, 62141,29, 58225,64, 57210,25, 0,00, 0,00, 0,00
13, 79787,05, 60837,22, 1629,44, 3798,14, 42724,80, 62127,77, 58276,81, 57251,33, 0,00, 0,00, 0,00
14, 79764,68, 60871,98, 1629,17, 3802,10, 42712,91, 62098,15, 58324,82, 57272,14, 0,00, 0,00, 0,00
15, 79731,20, 60890,62, 1612,86, 3788,13, 42699,68, 62128,97, 58426,99, 57346,41, 0,00, 0,00, 0,00
16, 79699,59, 60893,75, 1600,16, 3774,99, 42695,23, 62233,38, 58606,25, 57473,17, 0,00, 0,00, 0,00
17, 79679,25, 60897,75, 1588,67, 3762,27, 42679,49, 62366,15, 58774,65, 57597,05, -0,04, 0,99, 0,18
18, 79669,30, 60910,16, 1587,11, 3761,93, 42678,55, 62536,13, 58915,75, 57739,09, 0,00, 0,00, 0,00
19, 79621,47, 60884,34, 1585,57, 3759,30, 42674,48, 62692,26, 59062,54, 57869,52, 0,00, 0,00, 0,00
20, 79556,56, 60854,25, 1568,22, 3748,16, 42676,50, 62899,01, 59269,92, 58039,39, 0,00, 0,00, 0,00
21, 79484,39, 60817,13, 1564,56, 3751,96, 42694,00, 63147,21, 59545,07, 58223,52, 0,00, 0,00, 0,00
22, 79399,18, 60765,47, 1563,93, 3750,33, 42696,05, 63403,92, 59783,23, 58395,41, 0,00, 0,00, 0,00
23, 79271,22, 60674,79, 1572,65, 3755,88, 42668,03, 63573,79, 59890,98, 58503,63, 0,00, 0,00, 0,00
24, 79099,60, 60555,66, 1580,69, 3764,93, 42633,40, 63656,56, 59963,31, 58561,05, 0,00, 0,00, 0,00
25, 78904,47, 60439,11, 1579,28, 3762,78, 42605,35, 63697,95, 60039,80, 58594,54, 0,00, 0,00, 0,00
26, 78702,79, 60330,95, 1560,76, 3745,06, 42594,51, 63772,48, 60169,73, 58650,66, 0,00, 0,00, 0,00
27, 78524,34, 60271,01, 1557,04, 3743,98, 42590,49, 63851,06, 60248,05, 58686,16, -0,07, 0,94, 0,12
28, 78356,02, 60220,02, 1550,07, 3741,23, 42579,13, 63905,73, 60232,88, 58693,67, 0,00, 0,00, 0,00
29, 78165,23, 60140,36, 1539,19, 3734,51, 42566,68, 63922,63, 60212,67, 58698,11, 0,00, 0,00, 0,00
30, 77965,85, 60058,38, 1527,34, 3730,51, 42560,83, 63916,22, 60197,11, 58696,33, 0,00, 0,00, 0,00
31, 77769,74, 59985,35, 1510,71, 3719,84, 42578,98, 63941,75, 60226,95, 58728,89, 0,00, 0,00, 0,00
32, 77583,28, 59930,25, 1509,12, 3721,52, 42588,66, 63947,76, 60190,77, 58737,99, 0,00, 0,00, 0,00
33, 77397,14, 59887,47, 1509,28, 3724,67, 42583,43, 63907,48, 60046,11, 58709,29, 0,00, 0,00, 0,00
34, 77196,66, 59830,12, 1514,51, 3726,80, 42565,23, 63777,19, 59857,88, 58619,17, 0,00, 0,00, 0,00
35, 76996,13, 59771,76, 1498,08, 3703,71, 42552,64, 63648,36, 59709,69, 58550,10, 0,00, 0,00, 0,00
36, 76802,70, 59733,87, 1488,72, 3685,56, 42542,81, 63511,94, 59609,60, 58478,02, 0,00, 0,00, 0,00
37, 76636,17, 59755,40, 1494,33, 3671,77, 42547,39, 63390,02, 59513,44, 58397,62, -0,11, 0,98, 0,10
38, 76468,63, 59778,73, 1516,81, 3668,46, 42536,64, 63197,19, 59341,93, 58239,57, 0,00, 0,00, 0,00
39, 76270,72, 59757,92, 1517,46, 3644,85, 42536,33, 63009,27, 59223,94, 58105,61, 0,00, 0,00, 0,00
40, 76048,88, 59761,45, 1511,60, 3606,16, 42528,19, 62814,46, 59136,07, 57966,77, 0,00, 0,00, 0,00
41, 75815,51, 59784,63, 1498,86, 3556,21, 42530,09, 62665,66, 59133,50, 57868,02, 0,00, 0,00, 0,00
42, 75575,58, 59854,97, 1489,03, 3518,75, 42520,73, 62552,32, 59142,89, 57784,55, 0,00, 0,00, 0,00
43, 75332,28, 60022,12, 1489,94, 3503,88, 42508,01, 62419,77, 59099,60, 57692,67, 0,00, 0,00, 0,00
44, 75060,42, 60211,91, 1491,06, 3493,87, 42498,24, 62261,41, 59063,07, 57602,16, 0,00, 0,00, 0,00
45, 74778,97, 60339,94, 1492,72, 3490,60, 42507,41, 62144,42, 59074,56, 57572,41, 0,00, 0,00, 0,00
46, 74496,10, 60426,17, 1494,42, 3496,91, 42535,23, 62100,14, 59186,52, 57622,59, 0,00, 0,00, 0,00
47, 74210,27, 60456,75, 1497,43, 3508,75, 42547,50, 62080,96, 59301,81, 57673,00, -0,18, 0,93, 0,06
48, 73927,70, 60426,69, 1507,58, 3531,89, 42547,17, 62029,57, 59353,54, 57683,26, 0,00, 0,00, 0,00
49, 73646,23, 60315,53, 1532,21, 3568,95, 42565,39, 61950,99, 59429,49, 57675,32, 0,00, 0,00, 0,00
50, 73362,40, 60181,60, 1551,66, 3600,44, 42595,14, 61869,87, 59533,33, 57660,84, 0,00, 0,00, 0,00
51, 73066,82, 60024,45, 1548,17, 3609,61, 42640,80, 61857,78, 59704,93, 57695,41, 0,00, 0,00, 0,00
52, 72784,50, 59862,57, 1552,84, 3623,64, 42679,61, 61885,36, 59832,29, 57748,41, 0,00, 0,00, 0,00
53, 72499,40, 59695,90, 1558,16, 3636,00, 42693,08, 61863,70, 59818,99, 57740,45, 0,00, 0,00, 0,00
54, 72207,51, 59528,71, 1572,76, 3654,04, 42714,70, 61811,96, 59809,96, 57704,22, 0,00, 0,00, 0,00
55, 71917,20, 59382,17, 1574,88, 3656,21, 42745,25, 61772,08, 59844,56, 57680,53, 0,00, 0,00, 0,00
56, 71632,33, 59270,81, 1560,22, 3642,19, 42790,27, 61820,72, 59964,45, 57734,13, -0,17, 0,97, 0,04
57, 71361,32, 59214,64, 1557,69, 3643,24, 42819,44, 61861,31, 59989,96, 57759,88, 0,00, 0,00, 0,00
58, 71113,19, 59191,84, 1567,10, 3659,11, 42834,32, 61848,50, 59869,26, 57709,05, 0,00, 0,00, 0,00
59, 70856,34, 59137,33, 1566,66, 3659,41, 42838,48, 61809,41, 59721,02, 57602,77, 0,00, 0,00, 0,00
60, 70589,58, 59055,52, 1568,49, 3654,78, 42825,16, 61727,25, 59525,89, 57454,66, 0,00, 0,00, 0,00
61, 70323,91, 58967,52, 1568,80, 3644,41, 42816,06, 61626,53, 59325,75, 57301,51, 0,00, 0,00, 0,00
62, 70069,61, 58897,58, 1571,24, 3636,18, 42793,15, 61513,86, 59099,30, 57136,62, 0,00, 0,00, 0,00
63, 69813,68, 58822,93, 1571,46, 3628,29, 42752,23, 61353,95, 58775,18, 56939,86, 0,00, 0,00, 0,00
64, 69548,44, 58722,25, 1562,68, 3603,88, 42719,01, 61181,71, 58469,84, 56759,64, 0,00, 0,00, 0,00
65, 69311,05, 58634,26, 1561,72, 3584,21, 42702,65, 61026,43, 58206,96, 56585,74, 0,00, 0,00, 0,00
66, 69096,21, 58545,39, 1541,40, 3554,44, 42706,79, 60983,20, 58060,87, 56519,16, -0,15, 1,07, 0,05
67, 68897,82, 58479,34, 1542,25, 3544,00, 42685,86, 60924,57, 57899,15, 56439,36, 0,00, 0,00, 0,00
68, 68710,58, 58438,57, 1543,77, 3537,21, 42652,80, 60832,75, 57705,81, 56360,95, 0,00, 0,00, 0,00
69, 68517,02, 58396,07, 1538,20, 3527,02, 42632,31, 60710,80, 57577,04, 56305,18, 0,00, 0,00, 0,00
70, 68338,06, 58372,27, 1530,45, 3517,52, 42626,77, 60604,38, 57515,02, 56279,61, 0,00, 0,00, 0,00
71, 68183,03, 58364,43, 1512,68, 3498,54, 42652,51, 60586,50, 57581,15, 56348,05, 0,00, 0,00, 0,00
72, 68033,63, 58341,20, 1505,23, 3491,03, 42669,50, 60586,70, 57639,38, 56422,80, 0,00, 0,00, 0,00
73, 67888,26, 58312,23, 1500,58, 3487,36, 42667,47, 60534,47, 57618,19, 56435,09, 0,00, 0,00, 0,00
74, 67771,02, 58312,08, 1501,43, 3493,33, 42679,78, 60475,70, 57649,89, 56442,54, 0,00, 0,00, 0,00
75, 67660,16, 58306,49, 1491,60, 3490,25, 42700,17, 60440,95, 57741,44, 56467,07, 0,00, 0,00, 0,00
76, 67549,38, 58294,78, 1489,59, 3493,94, 42732,24, 60423,51, 57878,23, 56491,64, -0,09, 1,04, 0,05
77, 67457,96, 58302,69, 1497,90, 3505,27, 42763,82, 60413,37, 57970,01, 56511,51, 0,00, 0,00, 0,00
78, 67371,11, 58320,64, 1512,34, 3522,75, 42769,26, 60322,66, 57932,79, 56451,86, 0,00, 0,00, 0,00
79, 67284,31, 58330,86, 1508,54, 3522,70, 42792,37, 60257,91, 57940,61, 56418,21, 0,00, 0,00, 0,00
80, 67200,41, 58327,05, 1503,45, 3520,98, 42822,50, 60229,57, 58005,52, 56413,27, 0,00, 0,00, 0,00
81, 67123,13, 58316,48, 1499,06, 3513,00, 42860,86, 60231,31, 58129,04, 56431,63, 0,00, 0,00, 0,00
82, 67053,15, 58315,79, 1502,06, 3510,45, 42877,89, 60214,28, 58184,00, 56431,87, 0,00, 0,00, 0,00
83, 66988,13, 58332,42, 1510,17, 3515,06, 42881,02, 60145,28, 58138,14, 56399,91, 0,00, 0,00, 0,00
84, 66919,38, 58356,07, 1517,06, 3522,05, 42891,07, 60069,62, 58128,75, 56369,53, 0,00, 0,00, 0,00
85, 66846,20, 58377,52, 1523,74, 3526,48, 42899,84, 59987,07, 58159,44, 56329,14, 0,00, 0,00, 0,00
86, 66772,59, 58389,50, 1524,28, 3518,79, 42925,68, 59950,33, 58268,96, 56328,99, -0,09, 1,03, 0,05
87, 66704,55, 58400,93, 1523,79, 3517,56, 42933,65, 59918,86, 58344,98, 56332,72, 0,00, 0,00, 0,00
88, 66646,51, 58409,44, 1535,43, 3530,70, 42927,35, 59838,84, 58333,27, 56300,80, 0,00, 0,00, 0,00
89, 66590,34, 58405,38, 1551,43, 3543,38, 42929,25, 59752,43, 58349,32, 56272,93, 0,00, 0,00, 0,00
90, 66532,55, 58396,01, 1561,94, 3552,03, 42927,42, 59654,75, 58399,85, 56236,52, 0,00, 0,00, 0,00
91, 66475,00, 58378,30, 1552,51, 3551,07, 42941,97, 59616,91, 58537,77, 56252,10, 0,00, 0,00, 0,00
92, 66424,40, 58374,48, 1543,97, 3552,81, 42941,12, 59603,72, 58644,16, 56281,27, 0,00, 0,00, 0,00
93, 66379,59, 58373,48, 1539,81, 3551,80, 42922,93, 59572,05, 58657,88, 56288,44, 0,00, 0,00, 0,00
94, 66337,80, 58366,55, 1539,72, 3553,84, 42917,32, 59530,02, 58677,08, 56284,30, 0,00, 0,00, 0,00
95, 66305,35, 58365,25, 1538,58, 3554,42, 42923,98, 59514,40, 58735,15, 56292,69, 0,00, 0,00, 0,00
96, 66279,98, 58367,18, 1536,53, 3552,23, 42952,38, 59574,62, 58874,70, 56352,03, -0,11, 1,04, 0,08
97, 66264,60, 58386,84, 1533,73, 3549,35, 42963,23, 59675,09, 58978,38, 56428,88, 0,00, 0,00, 0,00
98, 66260,72, 58416,98, 1548,57, 3567,14, 42953,43, 59735,50, 58965,33, 56462,29, 0,00, 0,00, 0,00
99, 66255,11, 58442,81, 1559,68, 3582,22, 42954,84, 59794,80, 58956,32, 56497,79, 0,00, 0,00, 0,00
100, 66234,95, 58442,72, 1547,99, 3576,64, 42946,53, 59880,43, 58965,22, 56556,48, 0,00, 0,00, 0,00
101, 66215,16, 58436,24, 1543,16, 3575,59, 42955,85, 60019,37, 59029,70, 56658,05, 0,00, 0,00, 0,00
102, 66193,86, 58428,22, 1535,18, 3568,66, 42931,87, 60135,98, 59006,82, 56728,12, 0,00, 0,00, 0,00
103, 66183,31, 58428,04, 1533,24, 3566,24, 42884,52, 60184,98, 58883,86, 56734,63, 0,00, 0,00, 0,00
104, 66179,67, 58433,27, 1547,72, 3590,27, 42875,59, 60247,20, 58861,33, 56757,74, 0,00, 0,00, 0,00
105, 66174,15, 58433,70, 1550,79, 3602,16, 42879,83, 60325,81, 58924,38, 56801,21, 0,00, 0,00, 0,00
106, 66158,57, 58416,82, 1525,31, 3571,61, 42881,55, 60437,19, 59076,31, 56879,18, -0,11, 1,07, 0,12
107, 66154,23, 58411,30, 1502,01, 3547,85, 42859,67, 60560,75, 59203,98, 56970,41, 0,00, 0,00, 0,00
108, 66156,96, 58421,82, 1511,85, 3570,87, 42833,47, 60605,86, 59232,90, 57000,97, 0,00, 0,00, 0,00
109, 66148,38, 58413,58, 1504,21, 3579,81, 42827,71, 60655,19, 59316,81, 57047,21, 0,00, 0,00, 0,00
110, 66142,34, 58389,26, 1489,21, 3570,60, 42820,20, 60705,39, 59441,58, 57091,38, 0,00, 0,00, 0,00
111, 66145,13, 58357,86, 1471,28, 3571,45, 42829,61, 60793,57, 59635,30, 57160,36, 0,00, 0,00, 0,00
112, 66168,85, 58330,32, 1465,13, 3598,72, 42818,77, 60852,04, 59754,68, 57184,95, 0,00, 0,00, 0,00
113, 66195,09, 58308,68, 1447,52, 3618,10, 42802,81, 60888,95, 59781,88, 57190,16, 0,00, 0,00, 0,00
114, 66204,61, 58284,63, 1440,26, 3640,34, 42791,92, 60917,87, 59807,21, 57187,27, 0,00, 0,00, 0,00
115, 66219,59, 58273,97, 1433,95, 3661,66, 42794,98, 60956,85, 59848,89, 57188,79, 0,00, 0,00, 0,00
116, 66241,38, 58271,87, 1427,23, 3672,91, 42817,02, 61044,36, 59942,44, 57226,30, -0,09, 1,04, 0,15
117, 66262,84, 58279,31, 1417,86, 3668,44, 42817,52, 61120,87, 59960,25, 57248,02, 0,00, 0,00, 0,00
118, 66277,86, 58295,18, 1413,88, 3661,82, 42807,07, 61158,84, 59877,37, 57239,82, 0,00, 0,00, 0,00
119, 66279,27, 58302,13, 1396,85, 3642,60, 42804,77, 61211,05, 59827,91, 57238,97, 0,00, 0,00, 0,00
120, 66287,96, 58315,81, 1388,62, 3635,02, 42812,53, 61273,42, 59822,45, 57248,36, 0,00, 0,00, 0,00
121, 66293,26, 58324,15, 1359,23, 3601,29, 42841,30, 61415,82, 59919,55, 57322,75, 0,00, 0,00, 0,00
122, 66312,98, 58345,05, 1346,31, 3587,30, 42856,52, 61573,76, 59983,90, 57405,29, 0,00, 0,00, 0,00
123, 66339,48, 58379,87, 1348,99, 3594,34, 42858,33, 61673,29, 59952,81, 57438,91, 0,00, 0,00, 0,00
124, 66364,30, 58405,53, 1342,54, 3587,81, 42871,89, 61798,23, 59977,28, 57498,96, 0,00, 0,00, 0,00
125, 66394,67, 58427,88, 1351,72, 3600,13, 42894,32, 61936,04, 60057,91, 57570,11, 0,00, 0,00, 0,00
126, 66420,02, 58452,18, 1356,21, 3606,63, 42931,53, 62115,23, 60225,63, 57672,48, -0,04, 1,02, 0,17
127, 66450,41, 58487,07, 1359,68, 3616,04, 42952,99, 62299,99, 60362,07, 57772,46, 0,00, 0,00, 0,00
128, 66487,25, 58521,63, 1359,95, 3621,34, 42962,04, 62452,07, 60420,21, 57841,26, 0,00, 0,00, 0,00
129, 66509,98, 58538,68, 1351,81, 3614,46, 42981,09, 62629,05, 60518,78, 57929,55, 0,00, 0,00, 0,00
130, 66532,65, 58549,66, 1345,42, 3612,18, 43007,13, 62833,19, 60652,86, 58030,36, 0,00, 0,00, 0,00
131, 66554,98, 58551,98, 1337,08, 3602,12, 43044,65, 63101,54, 60857,67, 58173,27, 0,00, 0,00, 0,00
132, 66586,90, 58569,70, 1336,14, 3600,93, 43065,33, 63364,58, 60998,76, 58301,08, 0,00, 0,00, 0,00
133, 66630,33, 58613,58, 1336,28, 3607,82, 43082,50, 63613,82, 61054,53, 58415,19, 0,00, 0,00, 0,00
134, 66660,68, 58644,02, 1328,50, 3602,83, 43112,98, 63897,73, 61155,00, 58549,23, 0,00, 0,00, 0,00
135, 66690,09, 58662,11, 1310,91, 3584,88, 43150,60, 64261,40, 61322,57, 58736,94, -0,01, 1,00, 0,18
136, 66730,04, 58698,05, 1294,59, 3572,01, 43212,54, 64753,65, 61609,59, 59007,24, 0,00, 0,00, 0,00
137, 66780,26, 58764,37, 1272,71, 3554,55, 43263,19, 65340,76, 61898,21, 59334,00, 0,00, 0,00, 0,00
138, 66826,51, 58824,04, 1259,61, 3545,75, 43286,45, 65923,79, 62095,07, 59636,22, 0,00, 0,00, 0,00
139, 66860,68, 58874,18, 1235,18, 3520,51, 43326,42, 66577,20, 62351,26, 59983,95, 0,00, 0,00, 0,00
140, 66885,18, 58913,47, 1197,81, 3479,43, 43367,21, 67308,99, 62667,92, 60376,60, 0,00, 0,00, 0,00
141, 66915,89, 58949,84, 1171,34, 3445,39, 43426,96, 68145,68, 63075,57, 60836,55, 0,00, 0,00, 0,00
142, 66963,57, 59008,38, 1172,08, 3440,83, 43485,43, 69013,34, 63459,93, 61304,78, 0,00, 0,00, 0,00
143, 66994,81, 59056,26, 1171,97, 3441,41, 43514,87, 69836,03, 63743,13, 61719,27, 0,00, 0,00, 0,00
144, 67018,33, 59093,63, 1176,95, 3444,16, 43561,52, 70674,94, 64053,86, 62138,81, 0,00, 0,00, 0,00
145, 67035,88, 59117,99, 1173,22, 3438,28, 43608,05, 71510,67, 64366,27, 62551,76, 0,01, 0,95, 0,18
146, 67045,82, 59142,00, 1156,39, 3427,06, 43661,56, 72363,79, 64706,96, 62977,40, 0,00, 0,00, 0,00
147, 67060,02, 59175,62, 1142,55, 3422,25, 43686,35, 73161,91, 64949,56, 63350,00, 0,00, 0,00, 0,00
148, 67088,38, 59208,11, 1129,68, 3413,18, 43698,17, 73908,86, 65091,65, 63682,96, 0,00, 0,00, 0,00
149, 67115,05, 59228,75, 1130,55, 3414,99, 43720,82, 74626,17, 65247,15, 63997,94, 0,00, 0,00, 0,00
150, 67133,13, 59243,57, 1124,09, 3408,15, 43754,03, 75337,11, 65421,30, 64311,69, 0,00, 0,00, 0,00
151, 67140,13, 59249,62, 1115,91, 3403,10, 43793,86, 76062,60, 65626,77, 64628,34, 0,00, 0,00, 0,00
152, 67138,78, 59256,80, 1125,37, 3412,75, 43797,35, 76689,52, 65698,88, 64870,32, 0,00, 0,00, 0,00
153, 67136,55, 59293,77, 1150,87, 3438,88, 43782,48, 77155,54, 65606,86, 64999,86, 0,00, 0,00, 0,00
154, 67123,59, 59336,08, 1167,70, 3449,68, 43790,51, 77588,36, 65527,73, 65132,36, 0,00, 0,00, 0,00
155, 67091,82, 59355,26, 1172,89, 3447,64, 43786,64, 77979,04, 65442,31, 65247,15, 0,02, 0,87, 0,17
156, 67071,30, 59377,27, 1196,02, 3465,26, 43808,99, 78331,66, 65372,41, 65351,27, 0,00, 0,00, 0,00
157, 67061,35, 59412,97, 1211,31, 3496,91, 43825,91, 78602,21, 65202,63, 65414,46, 0,00, 0,00, 0,00
158, 67056,41, 59448,66, 1219,49, 3539,13, 43826,79, 78734,51, 64891,80, 65392,11, 0,00, 0,00, 0,00
159, 67025,75, 59446,68, 1225,23, 3567,38, 43804,25, 78743,96, 64541,69, 65297,89, 0,00, 0,00, 0,00
160, 66977,91, 59433,04, 1234,93, 3582,72, 43779,15, 78671,63, 64175,07, 65180,01, 0,00, 0,00, 0,00
161, 66954,85, 59452,02, 1270,07, 3623,08, 43774,15, 78534,23, 63830,46, 65040,07, 0,00, 0,00, 0,00
162, 66956,28, 59473,88, 1291,51, 3657,62, 43765,92, 78345,63, 63435,77, 64888,43, 0,00, 0,00, 0,00
163, 66944,63, 59437,09, 1298,30, 3679,57, 43725,96, 78013,48, 62914,66, 64650,65, 0,00, 0,00, 0,00
164, 66925,81, 59387,76, 1304,96, 3695,32, 43702,04, 77619,41, 62439,51, 64405,39, 0,00, 0,00, 0,00
165, 66899,28, 59359,30, 1312,78, 3702,32, 43680,25, 77162,94, 62007,09, 64149,46, 0,06, 0,87, 0,18
166, 66875,26, 59348,59, 1323,40, 3712,62, 43658,50, 76653,09, 61638,55, 63871,47, 0,00, 0,00, 0,00
167, 66876,15, 59369,94, 1356,93, 3749,04, 43621,28, 76039,76, 61217,87, 63525,24, 0,00, 0,00, 0,00
168, 66869,35, 59385,03, 1380,44, 3771,43, 43571,53, 75305,66, 60711,20, 63101,86, 0,00, 0,00, 0,00
169, 66839,67, 59377,65, 1389,34, 3771,81, 43532,46, 74529,12, 60243,38, 62670,76, 0,00, 0,00, 0,00
170, 66804,80, 59371,33, 1394,06, 3768,64, 43500,70, 73706,98, 59805,20, 62208,66, 0,00, 0,00, 0,00
171, 66776,04, 59368,38, 1410,04, 3774,74, 43482,14, 72873,14, 59420,23, 61734,51, 0,00, 0,00, 0,00
172, 66765,91, 59389,95, 1427,40, 3791,30, 43458,52, 71998,09, 58989,54, 61233,27, 0,00, 0,00, 0,00
173, 66772,13, 59421,57, 1455,70, 3816,25, 43451,14, 71057,67, 58481,88, 60700,05, 0,00, 0,00, 0,00
174, 66763,41, 59457,43, 1483,02, 3834,51, 43450,02, 70055,98, 57979,80, 60145,41, 0,00, 0,00, 0,00
175, 66757,35, 59510,71, 1506,44, 3848,70, 43455,12, 69017,89, 57507,80, 59583,16, 0,09, 0,84, 0,18
176, 66747,09, 59538,50, 1518,56, 3850,65, 43454,54, 67975,03, 57093,71, 59029,23, 0,00, 0,00, 0,00
177, 66747,88, 59580,23, 1560,40, 3878,34, 43433,44, 66848,05, 56608,29, 58425,87, 0,00, 0,00, 0,00
178, 66749,88, 59628,44, 1601,70, 3908,14, 43394,77, 65609,19, 56027,15, 57747,99, 0,00, 0,00, 0,00
179, 66735,45, 59671,54, 1629,17, 3929,24, 43365,85, 64340,86, 55488,74, 57056,16, 0,00, 0,00, 0,00
180, 66706,37, 59719,95, 1652,42, 3947,23, 43337,91, 63036,68, 54984,13, 56359,63, 0,00, 0,00, 0,00
181, 66689,20, 59766,64, 1666,05, 3947,39, 43329,91, 61776,60, 54591,63, 55706,56, 0,00, 0,00, 0,00
182, 66708,96, 59837,54, 1675,11, 3946,18, 43330,38, 60595,20, 54262,57, 55102,14, 0,00, 0,00, 0,00
183, 66739,55, 59900,35, 1691,98, 3964,98, 43315,76, 59412,57, 53910,95, 54502,49, 0,00, 0,00, 0,00
184, 66772,99, 59950,73, 1700,16, 3979,91, 43336,48, 58305,95, 53675,81, 53964,82, 0,00, 0,00, 0,00
185, 66806,48, 59995,39, 1700,01, 3984,11, 43378,23, 57306,14, 53574,71, 53495,68, 0,05, 0,90, 0,19
186, 66840,01, 60025,59, 1687,44, 3973,87, 43424,12, 56416,88, 53598,05, 53103,56, 0,00, 0,00, 0,00
187, 66880,95, 60051,69, 1680,67, 3977,14, 43451,75, 55557,23, 53599,77, 52729,37, 0,00, 0,00, 0,00
188, 66919,53, 60065,91, 1682,71, 3985,63, 43446,74, 54630,52, 53499,50, 52299,91, 0,00, 0,00, 0,00
189, 66948,45, 60071,03, 1676,29, 3983,84, 43464,53, 53759,74, 53462,15, 51932,85, 0,00, 0,00, 0,00
190, 66974,70, 60080,97, 1671,98, 3987,39, 43488,11, 52926,94, 53465,41, 51601,53, 0,00, 0,00, 0,00
191, 66997,02, 60096,15, 1662,55, 3989,54, 43523,09, 52144,96, 53526,77, 51314,84, 0,00, 0,00, 0,00
192, 67030,40, 60130,13, 1647,79, 3992,40, 43549,91, 51429,04, 53561,33, 51066,34, 0,00, 0,00, 0,00
193, 67063,28, 60167,27, 1648,02, 4003,15, 43540,10, 50654,30, 53466,29, 50735,51, 0,00, 0,00, 0,00
194, 67087,28, 60190,21, 1633,15, 3996,34, 43549,38, 49932,16, 53426,25, 50439,84, 0,00, 0,00, 0,00
195, 67104,83, 60171,30, 1620,01, 3989,36, 43574,23, 49278,75, 53456,77, 50195,67, 0,05, 1,00, 0,21
196, 67117,68, 60152,25, 1593,43, 3967,34, 43611,70, 48705,97, 53565,48, 50004,32, 0,00, 0,00, 0,00
197, 67139,85, 60161,17, 1574,10, 3953,02, 43622,42, 48159,92, 53627,78, 49817,59, 0,00, 0,00, 0,00
198, 67161,65, 60178,79, 1576,87, 3962,49, 43621,80, 47552,84, 53564,86, 49575,63, 0,00, 0,00, 0,00
199, 67172,65, 60196,64, 1569,36, 3968,53, 43636,50, 46947,51, 53508,42, 49329,43, 0,00, 0,00, 0,00
200, 67179,57, 60229,52, 1553,24, 3968,17, 43648,57, 46387,31, 53477,95, 49110,80, 0,00, 0,00, 0,00
201, 67177,05, 60244,43, 1549,89, 3950,49, 43637,15, 45897,23, 53491,95, 48943,19, 0,00, 0,00, 0,00
202, 67170,81, 60274,32, 1557,98, 3942,24, 43560,22, 45388,55, 53446,39, 48756,35, 0,00, 0,00, 0,00
203, 67162,38, 60306,41, 1543,41, 3943,83, 43485,77, 44847,12, 53393,20, 48550,40, 0,00, 0,00, 0,00
204, 67135,70, 60302,37, 1509,15, 3931,47, 43428,23, 44307,10, 53433,92, 48350,20, 0,00, 0,00, 0,00
205, 67118,91, 60293,56, 1489,34, 3910,35, 43399,49, 43791,78, 53560,12, 48167,29, 0,00, 1,03, 0,21
206, 67114,91, 60311,17, 1486,79, 3894,52, 43398,44, 43346,60, 53779,70, 48034,70, 0,00, 0,00, 0,00
207, 67133,59, 60360,13, 1497,28, 3900,49, 43389,65, 42894,00, 53954,07, 47878,46, 0,00, 0,00, 0,00
208, 67156,17, 60410,30, 1508,92, 3916,23, 43365,87, 42383,29, 54026,54, 47665,94, 0,00, 0,00, 0,00
209, 67165,83, 60435,16, 1513,73, 3925,55, 43372,57, 41881,11, 54131,61, 47455,90, 0,00, 0,00, 0,00
210, 67178,92, 60453,44, 1511,34, 3924,90, 43404,47, 41448,20, 54297,64, 47302,66, 0,00, 0,00, 0,00
211, 67195,22, 60477,96, 1500,67, 3916,99, 43455,88, 41101,17, 54530,95, 47222,95, 0,00, 0,00, 0,00
212, 67216,27, 60505,86, 1494,04, 3918,17, 43477,58, 40748,59, 54684,61, 47125,19, 0,00, 0,00, 0,00
213, 67222,89, 60525,73, 1485,56, 3917,61, 43469,25, 40319,10, 54702,85, 46958,71, 0,00, 0,00, 0,00
214, 67224,68, 60537,51, 1477,32, 3915,49, 43482,59, 39908,26, 54746,77, 46815,97, -0,00, 1,07, 0,23
215, 67232,28, 60547,72, 1472,49, 3915,53, 43507,40, 39542,20, 54836,96, 46711,10, 0,00, 0,00, 0,00
216, 67235,56, 60559,37, 1462,16, 3911,40, 43540,82, 39240,74, 54998,16, 46653,97, 0,00, 0,00, 0,00
217, 67246,83, 60588,18, 1455,46, 3912,25, 43556,98, 38961,91, 55123,60, 46608,73, 0,00, 0,00, 0,00
218, 67267,38, 60623,50, 1468,17, 3929,26, 43563,19, 38627,88, 55157,82, 46514,05, 0,00, 0,00, 0,00
219, 67282,84, 60650,76, 1472,94, 3937,10, 43590,84, 38328,12, 55255,14, 46459,08, 0,00, 0,00, 0,00
220, 67292,52, 60674,43, 1482,95, 3946,22, 43609,41, 38026,98, 55386,79, 46405,19, 0,00, 0,00, 0,00
221, 67303,09, 60693,34, 1475,01, 3937,35, 43643,25, 37788,82, 55616,39, 46404,81, 0,00, 0,00, 0,00
222, 67316,21, 60717,98, 1465,81, 3933,77, 43639,23, 37528,78, 55786,91, 46372,47, 0,00, 0,00, 0,00
223, 67331,74, 60741,38, 1452,73, 3919,22, 43632,08, 37249,07, 55889,21, 46320,82, 0,00, 0,00, 0,00
224, 67332,03, 60730,20, 1438,02, 3904,47, 43625,55, 36974,43, 56013,89, 46280,52, 0,00, 1,02, 0,20
225, 67329,45, 60728,10, 1428,10, 3893,20, 43624,10, 36690,45, 56151,87, 46218,18, 0,00, 0,00, 0,00
226, 67330,59, 60740,46, 1400,20, 3865,35, 43658,75, 36522,39, 56399,26, 46225,82, 0,00, 0,00, 0,00
227, 67329,35, 60758,75, 1380,51, 3849,69, 43669,52, 36347,04, 56565,98, 46176,80, 0,00, 0,00, 0,00
228, 67336,53, 60776,98, 1376,69, 3847,61, 43664,15, 36084,79, 56595,66, 46094,08, 0,00, 0,00, 0,00
229, 67346,48, 60778,10, 1368,33, 3839,85, 43681,14, 35850,05, 56670,81, 46058,29, 0,00, 0,00, 0,00
230, 67354,81, 60766,41, 1358,74, 3837,35, 43699,89, 35629,37, 56763,08, 45996,78, 0,00, 0,00, 0,00
231, 67352,46, 60756,53, 1348,66, 3823,78, 43736,30, 35468,66, 56919,90, 45972,86, 0,00, 0,00, 0,00
232, 67354,14, 60771,02, 1351,10, 3826,26, 43746,72, 35274,02, 56995,29, 45914,19, 0,00, 0,00, 0,00
233, 67349,36, 60774,30, 1352,84, 3831,89, 43736,17, 34998,14, 56950,45, 45796,35, 0,00, 0,00, 0,00
234, 67336,10, 60767,73, 1357,35, 3839,20, 43733,73, 34695,85, 56911,92, 45670,82, 0,00, 0,95, 0,16
235, 67319,05, 60765,63, 1351,70, 3830,91, 43736,95, 34408,68, 56911,59, 45555,27, 0,00, 0,00, 0,00
236, 67300,48, 60763,71, 1336,32, 3812,18, 43758,88, 34202,21, 57005,11, 45509,80, 0,00, 0,00, 0,00
237, 67295,34, 60771,82, 1330,55, 3807,51, 43764,45, 33992,46, 57043,39, 45466,31, 0,00, 0,00, 0,00
238, 67294,75, 60793,59, 1343,97, 3823,40, 43748,26, 33691,23, 56955,77, 45353,05, 0,00, 0,00, 0,00
239, 67280,78, 60800,63, 1345,04, 3824,81, 43744,15, 33377,55, 56896,45, 45240,91, 0,00, 0,00, 0,00
240, 67260,95, 60791,18, 1336,70, 3817,88, 43744,84, 33064,89, 56874,44, 45134,45, 0,00, 0,00, 0,00
241, 67239,14, 60781,19, 1321,90, 3811,35, 43761,00, 32805,88, 56934,61, 45082,59, 0,00, 0,00, 0,00
242, 67226,52, 60794,20, 1333,46, 3828,05, 43755,10, 32491,19, 56912,23, 44980,40, 0,00, 0,00, 0,00
243, 67219,02, 60805,21, 1337,80, 3829,79, 43747,70, 32130,12, 56806,75, 44859,01, 0,00, 0,00, 0,00
244, 67203,78, 60808,28, 1350,89, 3840,16, 43756,73, 31761,13, 56735,39, 44750,87, 0,00, 1,00, 0,13
245, 67186,23, 60809,53, 1356,44, 3837,75, 43774,28, 31402,08, 56701,19, 44664,71, 0,00, 0,00, 0,00
246, 67158,95, 60806,89, 1363,97, 3839,11, 43799,96, 31080,72, 56722,00, 44591,93, 0,00, 0,00, 0,00
247, 67142,80, 60814,73, 1376,85, 3849,48, 43812,12, 30747,30, 56680,69, 44489,49, 0,00, 0,00, 0,00
248, 67137,02, 60823,90, 1391,82, 3857,78, 43812,95, 30384,36, 56564,73, 44371,95, 0,00, 0,00, 0,00
249, 67123,47, 60828,10, 1395,71, 3857,26, 43830,88, 30047,45, 56509,48, 44292,95, 0,00, 0,00, 0,00
250, 67106,08, 60829,67, 1400,20, 3857,53, 43843,62, 29711,70, 56481,71, 44213,56, 0,00, 0,00, 0,00
251, 67091,95, 60848,11, 1407,69, 3862,81, 43874,39, 29425,58, 56522,22, 44151,67, 0,00, 0,00, 0,00
252, 67083,84, 60869,70, 1403,67, 3859,16, 43884,30, 29164,18, 56531,27, 44097,40, 0,00, 0,00, 0,00
253, 67073,31, 60877,95, 1409,57, 3860,79, 43869,28, 28846,31, 56447,16, 43994,07, 0,00, 0,00, 0,00
254, 67051,99, 60869,52, 1404,99, 3853,64, 43868,94, 28544,05, 56415,20, 43912,10, -0,01, 1,04, 0,11
255, 67027,11, 60848,51, 1400,18, 3848,66, 43874,89, 28260,18, 56427,69, 43844,13, 0,00, 0,00, 0,00
0, 66997,43, 60819,88, 1396,72, 3843,65, 43888,61, 28011,72, 56502,30, 43792,61, 0,00, 0,00, 0,00
1, 66977,89, 60808,52, 1399,62, 3844,48, 43883,16, 27737,08, 56508,88, 43707,80, 0,00, 0,00, 0,00
2, 66960,39, 60802,20, 1405,03, 3848,43, 43854,23, 27390,97, 56404,83, 43557,31, 0,00, 0,00, 0,00
3, 66939,41, 60787,04, 1404,11, 3849,51, 43842,25, 27050,46, 56351,27, 43415,54, 0,00, 0,00, 0,00
4, 66904,63, 60755,53, 1388,07, 3830,22, 43831,34, 26730,74, 56342,15, 43292,38, 0,00, 0,00, 0,00
5, 66861,98, 60721,17, 1364,26, 3804,33, 43844,71, 26479,42, 56425,32, 43226,44, 0,00, 0,00, 0,00
6, 66843,88, 60716,10, 1354,94, 3800,38, 43850,97, 26233,41, 56467,97, 43160,10, 0,00, 0,00, 0,00
7, 66824,25, 60716,52, 1353,35, 3801,52, 43832,95, 25918,37, 56399,39, 43034,84, 0,00, 0,00, 0,00
8, 66789,23, 60690,77, 1332,68, 3782,79, 43826,38, 25634,37, 56388,78, 42945,84, -0,01, 1,04, 0,10
9, 66750,11, 60661,80, 1312,74, 3766,22, 43821,04, 25347,12, 56410,95, 42859,87, 0,00, 0,00, 0,00
10, 66719,98, 60642,92, 1304,69, 3758,87, 43829,80, 25084,36, 56506,73, 42794,96, 0,00, 0,00, 0,00
11, 66705,41, 60634,94, 1301,79, 3756,43, 43832,51, 24816,38, 56560,06, 42724,55, 0,00, 0,00, 0,00
12, 66694,38, 60624,23, 1293,94, 3748,14, 43826,20, 24518,99, 56531,65, 42631,28, 0,00, 0,00, 0,00
13, 66667,23, 60597,23, 1280,75, 3729,43, 43823,66, 24221,04, 56534,64, 42540,98, 0,00, 0,00, 0,00
14, 66641,03, 60580,49, 1266,25, 3713,50, 43830,34, 23959,64, 56590,10, 42485,17, 0,00, 0,00, 0,00
15, 66615,75, 60569,58, 1255,56, 3699,86, 43849,76, 23746,43, 56713,97, 42461,25, 0,00, 0,00, 0,00
16, 66596,44, 60571,41, 1255,03, 3693,16, 43853,85, 23521,70, 56767,30, 42417,64, 0,00, 0,00, 0,00
17, 66578,36, 60567,77, 1257,93, 3692,78, 43836,20, 23217,31, 56694,68, 42302,60, 0,00, 0,00, 0,00
18, 66560,14, 60553,91, 1255,16, 3685,44, 43835,14, 22923,37, 56660,38, 42201,63, -0,02, 1,01, 0,09
19, 66536,70, 60534,51, 1243,43, 3669,66, 43841,00, 22656,80, 56672,82, 42121,23, 0,00, 0,00, 0,00
20, 66517,23, 60518,35, 1228,38, 3653,21, 43870,37, 22475,30, 56790,19, 42112,90, 0,00, 0,00, 0,00
21, 66514,16, 60515,54, 1224,23, 3650,58, 43878,71, 22311,00, 56862,21, 42113,17, 0,00, 0,00, 0,00
22, 66509,76, 60519,16, 1231,09, 3662,42, 43858,32, 22057,24, 56806,06, 42029,86, 0,00, 0,00, 0,00
23, 66502,72, 60520,74, 1241,39, 3669,55, 43856,20, 21792,82, 56780,20, 41938,55, 0,00, 0,00, 0,00
24, 66497,00, 60517,43, 1243,43, 3666,31, 43862,08, 21559,87, 56814,06, 41872,89, 0,00, 0,00, 0,00
25, 66496,68, 60518,02, 1243,14, 3668,64, 43891,67, 21404,46, 56951,89, 41871,32, 0,00, 0,00, 0,00
26, 66507,01, 60535,14, 1254,94, 3685,98, 43898,55, 21223,85, 57022,38, 41838,24, 0,00, 0,00, 0,00
27, 66517,91, 60556,19, 1270,03, 3705,29, 43889,77, 20980,75, 56989,55, 41754,84, -0,03, 0,99, 0,09
28, 66513,00, 60554,14, 1272,73, 3708,80, 43892,81, 20742,11, 56994,13, 41691,10, 0,00, 0,00, 0,00
29, 66511,03, 60546,54, 1278,36, 3713,61, 43906,38, 20523,37, 57043,84, 41646,75, 0,00, 0,00, 0,00
30, 66512,04, 60537,53, 1281,63, 3712,98, 43940,15, 20360,00, 57173,50, 41645,75, 0,00, 0,00, 0,00
31, 66522,86, 60555,97, 1300,18, 3736,25, 43957,03, 20172,65, 57227,82, 41614,43, 0,00, 0,00, 0,00
32, 66531,95, 60575,21, 1317,59, 3756,79, 43956,65, 19920,12, 57169,28, 41528,40, 0,00, 0,00, 0,00
33, 66531,30, 60583,02, 1329,33, 3766,47, 43967,40, 19669,22, 57144,94, 41453,59, 0,00, 0,00, 0,00
34, 66527,82, 60583,60, 1333,73, 3770,87, 43990,94, 19446,15, 57170,15, 41401,31, 0,00, 0,00, 0,00
35, 66526,79, 60574,25, 1330,85, 3767,92, 44032,24, 19289,53, 57283,05, 41396,23, 0,00, 0,00, 0,00
36, 66534,03, 60568,78, 1330,55, 3767,97, 44050,59, 19138,21, 57342,68, 41383,54, 0,00, 0,00, 0,00
37, 66532,13, 60557,33, 1338,53, 3773,53, 44041,41, 18922,79, 57288,70, 41310,96, -0,02, 0,97, 0,09
38, 66523,46, 60545,53, 1345,62, 3780,80, 44043,26, 18694,24, 57263,74, 41231,77, 0,00, 0,00, 0,00
39, 66511,81, 60526,31, 1345,22, 3780,55, 44059,20, 18499,24, 57294,29, 41183,85, 0,00, 0,00, 0,00
40, 66496,17, 60501,39, 1340,90, 3778,52, 44085,04, 18357,24, 57403,05, 41177,95, 0,00, 0,00, 0,00
41, 66483,32, 60486,39, 1344,82, 3788,71, 44083,72, 18190,16, 57429,99, 41142,05, 0,00, 0,00, 0,00
42, 66467,89, 60471,17, 1360,75, 3807,51, 44061,46, 17939,91, 57326,28, 41040,30, 0,00, 0,00, 0,00
43, 66444,34, 60449,69, 1365,38, 3810,97, 44063,76, 17704,44, 57267,56, 40966,81, 0,00, 0,00, 0,00
44, 66409,65, 60424,56, 1369,96, 3816,14, 44063,60, 17470,50, 57237,81, 40894,08, 0,00, 0,00, 0,00
45, 66388,75, 60409,25, 1374,03, 3822,22, 44093,60, 17292,83, 57298,54, 40869,38, 0,00, 0,00, 0,00
46, 66374,58, 60396,51, 1373,89, 3826,37, 44099,54, 17114,73, 57300,62, 40841,53, 0,00, 0,00, 0,00
47, 66366,44, 60401,05, 1394,73, 3850,38, 44087,77, 16844,34, 57172,36, 40742,51, -0,00, 1,02, 0,09
48, 66346,59, 60397,92, 1407,98, 3860,57, 44088,39, 16554,51, 57067,09, 40638,80, 0,00, 0,00, 0,00
49, 66328,11, 60390,77, 1411,33, 3865,09, 44108,55, 16310,31, 57034,18, 40582,79, 0,00, 0,00, 0,00
50, 66310,34, 60386,05, 1417,77, 3871,59, 44145,72, 16121,15, 57086,55, 40574,52, 0,00, 0,00, 0,00
51, 66303,68, 60392,91, 1434,40, 3891,06, 44158,62, 15906,80, 57069,32, 40536,14, 0,00, 0,00, 0,00
52, 66291,78, 60393,83, 1446,90, 3898,35, 44148,49, 15633,10, 56946,61, 40448,83, 0,00, 0,00, 0,00
53, 66271,71, 60388,11, 1454,90, 3904,40, 44144,76, 15360,65, 56867,44, 40368,88, 0,00, 0,00, 0,00
54, 66258,70, 60385,36, 1456,42, 3905,50, 44161,79, 15136,33, 56867,75, 40332,78, 0,00, 0,00, 0,00
55, 66246,92, 60377,04, 1457,76, 3906,21, 44189,06, 14963,53, 56962,59, 40332,65, 0,00, 0,00, 0,00
56, 66253,16, 60391,89, 1466,81, 3913,70, 44202,00, 14789,39, 57011,32, 40317,79, 0,00, 0,00, 0,00
57, 66259,71, 60409,16, 1470,05, 3917,59, 44202,20, 14598,73, 56992,61, 40288,93, 0,00, 1,05, 0,10
58, 66248,73, 60406,68, 1468,91, 3917,90, 44205,63, 14403,69, 57013,51, 40259,49, 0,00, 0,00, 0,00
59, 66228,69, 60395,66, 1459,77, 3902,97, 44217,29, 14230,08, 57087,63, 40247,69, 0,00, 0,00, 0,00
60, 66210,40, 60378,07, 1447,72, 3883,79, 44249,39, 14136,05, 57268,41, 40304,44, 0,00, 0,00, 0,00
61, 66210,20, 60383,46, 1451,08, 3883,41, 44262,78, 14038,55, 57385,11, 40341,46, 0,00, 0,00, 0,00
62, 66220,28, 60400,60, 1460,37, 3890,68, 44270,02, 13917,18, 57417,34, 40341,52, 0,00, 0,00, 0,00
63, 66214,05, 60398,08, 1454,00, 3881,49, 44291,28, 13837,99, 57512,18, 40371,81, 0,00, 0,00, 0,00
64, 66203,88, 60393,88, 1442,16, 3864,80, 44319,57, 13813,36, 57667,41, 40447,29, 0,00, 0,00, 0,00
65, 66186,98, 60384,46, 1434,74, 3854,00, 44352,74, 13832,18, 57884,54, 40555,74, 0,00, 0,00, 0,00
66, 66173,84, 60384,18, 1437,53, 3854,20, 44362,27, 13823,44, 58015,56, 40633,50, 0,00, 0,00, 0,00
67, 66161,81, 60383,14, 1441,02, 3855,09, 44355,98, 13742,25, 58026,40, 40656,77, 0,00, 1,03, 0,10
68, 66132,77, 60364,28, 1440,19, 3850,62, 44348,92, 13638,01, 58054,54, 40666,41, 0,00, 0,00, 0,00
69, 66113,30, 60350,71, 1445,33, 3853,44, 44354,75, 13535,46, 58118,98, 40676,30, 0,00, 0,00, 0,00
70, 66103,96, 60339,45, 1442,72, 3845,82, 44392,86, 13531,37, 58304,25, 40770,68, 0,00, 0,00, 0,00
71, 66105,05, 60337,55, 1436,68, 3837,26, 44408,22, 13545,65, 58441,18, 40864,20, 0,00, 0,00, 0,00
72, 66105,82, 60334,57, 1436,23, 3830,24, 44403,66, 13531,79, 58487,18, 40922,24, 0,00, 0,00, 0,00
73, 66108,39, 60327,11, 1436,19, 3822,57, 44425,57, 13582,13, 58611,19, 41033,02, 0,00, 0,00, 0,00
74, 66112,50, 60323,02, 1434,49, 3820,61, 44447,14, 13660,22, 58775,79, 41150,52, 0,00, 0,00, 0,00
75, 66120,37, 60327,49, 1423,47, 3810,21, 44503,06, 13855,44, 59063,12, 41352,63, 0,00, 0,00, 0,00
76, 66140,38, 60364,32, 1421,37, 3808,65, 44541,06, 14093,74, 59315,47, 41565,37, 0,00, 0,00, 0,00
77, 66168,07, 60412,96, 1415,00, 3799,37, 44564,48, 14342,85, 59498,20, 41766,40, -0,01, 1,00, 0,08
78, 66178,93, 60421,64, 1402,17, 3781,78, 44597,05, 14658,61, 59745,99, 42020,36, 0,00, 0,00, 0,00
79, 66152,09, 60379,77, 1405,12, 3781,80, 44591,04, 14882,17, 59928,24, 42213,70, 0,00, 0,00, 0,00
80, 66112,26, 60324,63, 1408,32, 3783,23, 44576,39, 15018,38, 60076,01, 42356,33, 0,00, 0,00, 0,00
81, 66089,48, 60324,14, 1417,55, 3793,45, 44554,63, 15114,76, 60139,82, 42470,17, 0,00, 0,00, 0,00
82, 66076,78, 60341,06, 1438,18, 3814,91, 44526,19, 15116,77, 60072,14, 42511,14, 0,00, 0,00, 0,00
83, 66075,04, 60341,93, 1451,59, 3830,73, 44520,52, 15113,91, 60040,52, 42564,05, 0,00, 0,00, 0,00
84, 66070,46, 60336,88, 1452,30, 3830,71, 44530,17, 15145,12, 60078,43, 42644,13, 0,00, 0,00, 0,00
85, 66054,59, 60319,80, 1435,27, 3813,12, 44561,64, 15259,47, 60224,05, 42782,82, 0,00, 0,00, 0,00
86, 66056,27, 60303,26, 1429,55, 3809,09, 44580,69, 15399,55, 60325,57, 42929,27, 0,00, 0,00, 0,00
87, 66039,44, 60283,52, 1435,79, 3811,62, 44567,43, 15465,04, 60301,00, 43012,49, -0,04, 0,99, 0,08
88, 66010,94, 60258,54, 1434,78, 3812,69, 44567,10, 15525,66, 60304,76, 43109,32, 0,00, 0,00, 0,00
89, 65984,78, 60232,32, 1443,32, 3824,90, 44560,35, 15539,80, 60309,72, 43166,80, 0,00, 0,00, 0,00
90, 65960,80, 60206,46, 1435,79, 3819,64, 44575,01, 15604,76, 60402,66, 43269,51, 0,00, 0,00, 0,00
91, 65954,56, 60199,59, 1438,96, 3827,20, 44584,31, 15689,94, 60449,20, 43384,49, 0,00, 0,00, 0,00
92, 65948,02, 60192,44, 1443,63, 3837,86, 44568,50, 15720,27, 60388,36, 43451,77, 0,00, 0,00, 0,00
93, 65933,91, 60177,06, 1444,95, 3842,33, 44563,10, 15750,78, 60376,22, 43521,50, 0,00, 0,00, 0,00
94, 65921,41, 60161,80, 1442,00, 3845,53, 44570,67, 15811,49, 60421,05, 43616,14, 0,00, 0,00, 0,00
95, 65904,18, 60146,08, 1440,48, 3846,94, 44590,97, 15899,82, 60529,33, 43726,52, 0,00, 0,00, 0,00
96, 65895,17, 60138,44, 1440,12, 3851,05, 44591,80, 15980,87, 60577,83, 43828,39, 0,00, 0,00, 0,00
97, 65895,94, 60137,39, 1445,06, 3861,84, 44582,52, 16017,24, 60528,52, 43900,03, -0,06, 1,01, 0,08
98, 65886,77, 60125,79, 1444,10, 3864,26, 44582,25, 16041,89, 60515,09, 43965,61, 0,00, 0,00, 0,00
99, 65873,43, 60113,05, 1436,86, 3855,74, 44596,96, 16107,81, 60566,95, 44072,41, 0,00, 0,00, 0,00
100, 65858,52, 60097,87, 1420,39, 3845,48, 44620,12, 16222,20, 60698,35, 44221,90, 0,00, 0,00, 0,00
101, 65850,30, 60092,68, 1418,35, 3842,89, 44613,34, 16294,33, 60734,23, 44322,12, 0,00, 0,00, 0,00
102, 65856,53, 60102,34, 1422,98, 3844,54, 44613,41, 16341,54, 60691,76, 44402,77, 0,00, 0,00, 0,00
103, 65855,81, 60101,80, 1419,83, 3846,82, 44618,86, 16404,57, 60699,60, 44498,61, 0,00, 0,00, 0,00
104, 65856,06, 60099,43, 1416,39, 3842,04, 44633,71, 16492,14, 60762,68, 44604,67, 0,00, 0,00, 0,00
105, 65857,76, 60090,70, 1402,66, 3826,31, 44671,82, 16668,43, 60936,22, 44779,66, 0,00, 0,00, 0,00
106, 65862,95, 60086,20, 1394,12, 3816,69, 44679,95, 16842,51, 61039,68, 44941,27, -0,06, 1,00, 0,07
107, 65870,16, 60084,57, 1390,52, 3808,96, 44670,09, 16968,91, 61038,12, 45055,24, 0,00, 0,00, 0,00
108, 65872,65, 60075,14, 1388,69, 3803,69, 44670,94, 17104,36, 61077,91, 45171,51, 0,00, 0,00, 0,00
109, 65873,05, 60064,59, 1380,53, 3791,03, 44690,32, 17282,46, 61182,94, 45317,00, 0,00, 0,00, 0,00
110, 65867,10, 60045,30, 1368,84, 3771,77, 44725,28, 17527,21, 61376,08, 45508,06, 0,00, 0,00, 0,00
111, 65869,96, 60039,76, 1356,62, 3761,78, 44750,94, 17818,90, 61537,97, 45732,43, 0,00, 0,00, 0,00
112, 65864,71, 60030,64, 1356,59, 3763,90, 44740,95, 18037,23, 61565,53, 45887,50, 0,00, 0,00, 0,00
113, 65853,04, 60021,43, 1358,43, 3761,78, 44746,58, 18242,51, 61616,67, 46033,04, 0,00, 0,00, 0,00
114, 65836,77, 60006,68, 1348,79, 3754,27, 44763,57, 18492,02, 61731,40, 46217,97, 0,00, 0,00, 0,00
115, 65816,79, 59983,07, 1335,61, 3734,26, 44783,68, 18784,49, 61919,25, 46432,82, 0,00, 0,00, 0,00
116, 65810,66, 59974,82, 1342,00, 3738,31, 44779,93, 19045,83, 62017,55, 46611,88, -0,08, 0,97, 0,05
117, 65798,59, 59963,71, 1347,68, 3742,31, 44756,26, 19227,15, 61985,59, 46723,46, 0,00, 0,00, 0,00
118, 65787,53, 59952,59, 1349,73, 3740,65, 44756,68, 19423,71, 62010,35, 46853,64, 0,00, 0,00, 0,00
119, 65778,41, 59939,64, 1347,59, 3730,71, 44774,12, 19652,66, 62099,61, 47004,18, 0,00, 0,00, 0,00
120, 65767,46, 59919,17, 1329,01, 3708,38, 44808,79, 19985,45, 62306,56, 47231,89, 0,00, 0,00, 0,00
121, 65764,40, 59923,59, 1333,86, 3709,74, 44817,62, 20293,28, 62426,92, 47423,23, 0,00, 0,00, 0,00
122, 65757,58, 59926,79, 1336,81, 3710,12, 44808,00, 20546,64, 62433,36, 47578,35, 0,00, 0,00, 0,00
123, 65734,78, 59916,73, 1338,74, 3713,09, 44799,22, 20754,02, 62443,60, 47705,15, 0,00, 0,00, 0,00
124, 65708,85, 59902,92, 1335,61, 3707,73, 44808,96, 20977,63, 62502,16, 47855,55, 0,00, 0,00, 0,00
125, 65685,74, 59884,59, 1333,91, 3703,15, 44827,92, 21225,39, 62624,36, 48023,30, 0,00, 0,00, 0,00
126, 65676,17, 59869,32, 1338,06, 3705,85, 44824,43, 21452,15, 62662,87, 48173,37, -0,09, 0,96, 0,05
127, 65665,76, 59840,07, 1354,54, 3724,72, 44797,12, 21573,52, 62552,65, 48241,34, 0,00, 0,00, 0,00
128, 65647,38, 59806,07, 1373,02, 3743,09, 44778,97, 21638,81, 62450,75, 48271,86, 0,00, 0,00, 0,00
129, 65631,16, 59789,15, 1377,94, 3748,34, 44785,85, 21740,85, 62417,45, 48342,80, 0,00, 0,00, 0,00
130, 65611,51, 59776,96, 1377,72, 3750,89, 44808,27, 21887,01, 62465,43, 48449,10, 0,00, 0,00, 0,00
131, 65597,30, 59774,38, 1387,89, 3762,16, 44811,11, 21999,19, 62430,97, 48521,86, 0,00, 0,00, 0,00
132, 65590,21, 59775,25, 1404,99, 3779,39, 44796,31, 22031,76, 62282,26, 48529,14, 0,00, 0,00, 0,00
133, 65578,74, 59758,91, 1406,60, 3781,76, 44797,27, 22093,87, 62205,66, 48569,63, 0,00, 0,00, 0,00
134, 65562,85, 59739,44, 1403,20, 3779,01, 44801,93, 22169,31, 62175,58, 48617,97, 0,00, 0,00, 0,00
135, 65547,34, 59721,31, 1401,25, 3775,54, 44828,63, 22308,96, 62245,65, 48716,56, 0,00, 0,00, 0,00
136, 65538,48, 59715,12, 1416,18, 3794,12, 44822,36, 22383,84, 62204,10, 48739,14, -0,09, 0,99, 0,05
137, 65527,94, 59707,27, 1423,49, 3801,92, 44801,32, 22393,81, 62051,73, 48713,82, 0,00, 0,00, 0,00
138, 65507,44, 59691,16, 1430,53, 3806,08, 44793,77, 22399,04, 61944,68, 48697,81, 0,00, 0,00, 0,00
139, 65492,44, 59681,26, 1435,94, 3810,03, 44804,50, 22429,66, 61897,61, 48701,48, 0,00, 0,00, 0,00
140, 65479,16, 59668,00, 1437,51, 3809,88, 44827,83, 22515,31, 61940,59, 48736,70, 0,00, 0,00, 0,00
141, 65470,96, 59659,66, 1444,21, 3815,13, 44820,45, 22562,07, 61898,53, 48729,98, 0,00, 0,00, 0,00
142, 65458,27, 59649,56, 1449,04, 3819,64, 44795,60, 22540,41, 61745,75, 48684,13, 0,00, 0,00, 0,00
143, 65439,49, 59636,31, 1452,93, 3825,39, 44792,43, 22526,74, 61648,75, 48655,21, 0,00, 0,00, 0,00
144, 65423,35, 59629,49, 1458,85, 3833,53, 44807,33, 22530,51, 61607,60, 48651,03, 0,00, 0,00, 0,00
145, 65409,00, 59616,46, 1455,19, 3829,08, 44841,96, 22602,98, 61664,86, 48705,66, 0,00, 0,00, 0,00
146, 65399,68, 59615,90, 1468,20, 3841,33, 44842,94, 22630,27, 61629,70, 48719,94, -0,09, 1,02, 0,05
147, 65386,25, 59615,45, 1481,05, 3851,72, 44818,89, 22580,83, 61484,04, 48679,17, 0,00, 0,00, 0,00
148, 65372,35, 59610,09, 1479,22, 3850,62, 44817,23, 22570,70, 61422,17, 48679,68, 0,00, 0,00, 0,00
149, 65352,88, 59592,83, 1470,39, 3845,19, 44823,89, 22595,24, 61415,28, 48704,70, 0,00, 0,00, 0,00
150, 65338,44, 59577,41, 1470,36, 3845,80, 44846,27, 22651,97, 61478,38, 48751,79, 0,00, 0,00, 0,00
151, 65333,27, 59574,19, 1466,30, 3842,00, 44850,59, 22708,16, 61477,00, 48800,25, 0,00, 0,00, 0,00
152, 65332,67, 59573,27, 1468,76, 3848,39, 44829,73, 22700,74, 61363,83, 48798,39, 0,00, 0,00, 0,00
153, 65322,70, 59571,82, 1466,39, 3849,13, 44826,45, 22694,13, 61303,30, 48799,89, 0,00, 0,00, 0,00
154, 65303,26, 59566,48, 1457,07, 3844,79, 44837,78, 22734,34, 61321,52, 48845,82, 0,00, 0,00, 0,00
155, 65277,11, 59543,32, 1448,57, 3838,84, 44868,09, 22840,76, 61434,50, 48949,29, 0,00, 0,00, 0,00
156, 65255,54, 59529,49, 1449,89, 3841,80, 44860,13, 22900,39, 61448,09, 49006,82, -0,08, 1,02, 0,07
157, 65238,95, 59523,45, 1458,63, 3852,90, 44830,91, 22864,98, 61335,09, 48986,28, 0,00, 0,00, 0,00
158, 65225,54, 59515,99, 1459,37, 3858,36, 44822,69, 22833,92, 61282,31, 48976,54, 0,00, 0,00, 0,00
159, 65199,88, 59494,04, 1439,52, 3839,31, 44821,08, 22851,60, 61302,85, 49013,98, 0,00, 0,00, 0,00
160, 65175,76, 59467,60, 1434,69, 3829,28, 44834,56, 22919,52, 61404,66, 49089,95, 0,00, 0,00, 0,00
161, 65162,33, 59459,95, 1441,78, 3836,14, 44820,90, 22926,03, 61402,09, 49105,62, 0,00, 0,00, 0,00
162, 65150,37, 59457,29, 1445,11, 3843,43, 44792,43, 22875,85, 61296,48, 49081,21, 0,00, 0,00, 0,00
163, 65129,58, 59441,87, 1442,13, 3840,45, 44777,20, 22818,29, 61226,30, 49056,89, 0,00, 0,00, 0,00
164, 65112,20, 59420,30, 1432,48, 3832,79, 44780,60, 22808,77, 61230,95, 49078,17, 0,00, 0,00, 0,00
165, 65095,56, 59402,84, 1418,64, 3821,59, 44803,94, 22857,03, 61326,57, 49147,10, 0,00, 0,00, 0,00
166, 65078,67, 59388,72, 1415,36, 3819,06, 44795,78, 22873,79, 61333,14, 49181,30, -0,08, 1,01, 0,07
167, 65065,61, 59383,22, 1423,81, 3830,04, 44765,13, 22789,55, 61196,17, 49128,89, 0,00, 0,00, 0,00
168, 65051,93, 59373,03, 1429,75, 3837,53, 44754,14, 22693,86, 61098,89, 49074,41, 0,00, 0,00, 0,00
169, 65039,06, 59355,59, 1425,95, 3835,98, 44757,46, 22630,54, 61068,65, 49049,96, 0,00, 0,00, 0,00
170, 65022,23, 59335,45, 1414,37, 3824,34, 44775,15, 22632,06, 61136,00, 49076,79, 0,00, 0,00, 0,00
171, 65009,49, 59326,78, 1423,92, 3832,50, 44759,32, 22567,10, 61090,64, 49037,91, 0,00, 0,00, 0,00
172, 65007,57, 59327,23, 1434,29, 3842,06, 44740,59, 22445,42, 60941,89, 48961,38, 0,00, 0,00, 0,00
173, 64996,73, 59314,46, 1433,10, 3839,02, 44739,14, 22349,33, 60859,39, 48918,89, 0,00, 0,00, 0,00
174, 64983,76, 59300,27, 1434,47, 3838,40, 44744,44, 22270,07, 60832,35, 48892,50, 0,00, 0,00, 0,00
175, 64972,81, 59285,07, 1421,88, 3827,29, 44765,31, 22247,72, 60893,10, 48909,59, -0,08, 1,01, 0,08
176, 64973,90, 59283,95, 1428,34, 3838,38, 44755,54, 22181,83, 60858,72, 48882,21, 0,00, 0,00, 0,00
177, 64968,85, 59283,48, 1432,66, 3846,51, 44731,18, 22041,81, 60712,79, 48801,41, 0,00, 0,00, 0,00
178, 64952,69, 59270,52, 1426,35, 3839,22, 44721,79, 21917,65, 60627,00, 48747,05, 0,00, 0,00, 0,00
179, 64936,02, 59255,70, 1427,47, 3837,19, 44718,30, 21797,78, 60583,82, 48695,75, 0,00, 0,00, 0,00
180, 64929,38, 59244,48, 1426,49, 3835,25, 44734,96, 21717,16, 60625,44, 48670,72, 0,00, 0,00, 0,00
181, 64929,89, 59243,27, 1427,18, 3836,74, 44738,94, 21643,82, 60617,75, 48654,40, 0,00, 0,00, 0,00
182, 64926,77, 59244,79, 1440,21, 3851,90, 44712,96, 21472,40, 60475,84, 48558,92, 0,00, 0,00, 0,00
183, 64916,53, 59228,59, 1436,30, 3845,75, 44702,48, 21306,13, 60380,53, 48478,96, 0,00, 0,00, 0,00
184, 64894,58, 59197,90, 1425,71, 3831,83, 44686,81, 21150,54, 60327,60, 48409,68, 0,00, 0,00, 0,00
185, 64884,54, 59182,79, 1431,76, 3838,98, 44698,37, 21024,52, 60350,11, 48362,38, -0,08, 1,01, 0,08
186, 64880,63, 59181,89, 1438,74, 3845,53, 44695,17, 20877,89, 60305,59, 48296,39, 0,00, 0,00, 0,00
187, 64875,29, 59180,27, 1446,38, 3854,60, 44662,34, 20669,91, 60154,27, 48185,09, 0,00, 0,00, 0,00
188, 64870,73, 59176,62, 1449,58, 3856,39, 44656,30, 20468,97, 60053,59, 48088,93, 0,00, 0,00, 0,00
189, 64859,95, 59163,46, 1444,62, 3852,30, 44666,32, 20312,39, 60024,82, 48032,73, 0,00, 0,00, 0,00
190, 64849,76, 59152,53, 1445,51, 3852,05, 44687,02, 20191,98, 60072,70, 47996,32, 0,00, 0,00, 0,00
191, 64857,27, 59155,54, 1453,27, 3856,75, 44692,49, 20075,04, 60060,43, 47955,40, 0,00, 0,00, 0,00
192, 64863,38, 59160,24, 1464,24, 3870,16, 44678,30, 19891,80, 59937,90, 47860,25, 0,00, 0,00, 0,00
193, 64856,45, 59155,95, 1464,13, 3873,27, 44676,87, 19723,94, 59874,13, 47783,49, 0,00, 0,00, 0,00
194, 64849,98, 59150,18, 1455,86, 3865,24, 44693,52, 19605,34, 59886,60, 47747,10, 0,00, 0,00, 0,00
195, 64848,55, 59144,39, 1449,91, 3861,40, 44730,24, 19565,67, 60006,00, 47769,68, -0,08, 1,02, 0,09
196, 64857,41, 59146,04, 1448,91, 3861,87, 44736,93, 19520,20, 60054,84, 47780,16, 0,00, 0,00, 0,00
197, 64860,47, 59151,77, 1459,10, 3871,08, 44720,68, 19398,01, 59980,08, 47724,95, 0,00, 0,00, 0,00
198, 64852,20, 59145,62, 1458,63, 3872,84, 44724,70, 19287,19, 59953,72, 47685,41, 0,00, 0,00, 0,00
199, 64846,90, 59137,39, 1451,14, 3868,19, 44732,84, 19214,25, 59988,46, 47675,89, 0,00, 0,00, 0,00
200, 64850,14, 59135,32, 1449,91, 3862,22, 44768,22, 19213,18, 60120,51, 47722,45, 0,00, 0,00, 0,00
201, 64850,01, 59132,34, 1449,76, 3862,52, 44769,20, 19185,48, 60163,88, 47736,48, 0,00, 0,00, 0,00
202, 64853,96, 59136,90, 1452,53, 3867,03, 44755,16, 19105,02, 60103,04, 47709,28, 0,00, 0,00, 0,00
203, 64845,20, 59130,89, 1452,53, 3865,80, 44752,41, 19023,01, 60079,83, 47685,01, 0,00, 0,00, 0,00
204, 64840,06, 59128,70, 1449,38, 3860,28, 44768,13, 18982,82, 60128,79, 47694,08, 0,00, 0,00, 0,00
205, 64832,04, 59122,91, 1435,72, 3845,77, 44802,84, 19020,31, 60279,41, 47764,94, -0,07, 1,02, 0,09
206, 64833,16, 59124,43, 1432,81, 3840,95, 44809,46, 19046,77, 60352,03, 47821,18, 0,00, 0,00, 0,00
207, 64841,02, 59123,63, 1434,31, 3844,75, 44800,61, 19025,76, 60322,98, 47841,52, 0,00, 0,00, 0,00
208, 64838,18, 59114,35, 1434,56, 3850,49, 44795,26, 18978,40, 60316,74, 47840,13, 0,00, 0,00, 0,00
209, 64836,38, 59112,11, 1433,40, 3850,11, 44806,84, 18965,14, 60371,28, 47866,19, 0,00, 0,00, 0,00
210, 64835,59, 59103,40, 1419,07, 3834,20, 44840,86, 19028,51, 60521,84, 47953,63, 0,00, 0,00, 0,00
211, 64835,50, 59096,02, 1415,98, 3829,61, 44848,44, 19077,57, 60594,82, 48023,97, 0,00, 0,00, 0,00
212, 64829,73, 59093,65, 1424,39, 3838,38, 44815,83, 19014,94, 60518,06, 48003,79, 0,00, 0,00, 0,00
213, 64817,06, 59088,27, 1432,61, 3848,21, 44794,70, 18922,34, 60457,09, 47980,14, 0,00, 0,00, 0,00
214, 64804,68, 59079,75, 1433,89, 3850,49, 44787,60, 18832,08, 60435,70, 47964,41, 0,00, 0,00, 0,00
215, 64804,45, 59076,04, 1422,44, 3837,75, 44819,11, 18845,74, 60549,49, 48026,39, -0,06, 1,01, 0,11
216, 64823,79, 59090,05, 1427,34, 3840,57, 44830,80, 18873,34, 60612,23, 48073,44, 0,00, 0,00, 0,00
217, 64838,41, 59101,83, 1427,56, 3839,45, 44824,12, 18862,44, 60586,26, 48079,02, 0,00, 0,00, 0,00
218, 64841,58, 59095,17, 1416,81, 3828,03, 44835,56, 18890,22, 60629,39, 48123,04, 0,00, 0,00, 0,00
219, 64837,34, 59084,69, 1409,86, 3818,66, 44846,83, 18937,78, 60710,91, 48179,47, 0,00, 0,00, 0,00
220, 64830,61, 59072,84, 1400,31, 3809,54, 44868,09, 19025,45, 60864,16, 48262,00, 0,00, 0,00, 0,00
221, 64836,91, 59072,42, 1401,81, 3812,36, 44873,16, 19105,29, 60948,46, 48333,10, 0,00, 0,00, 0,00
222, 64839,86, 59066,54, 1400,96, 3812,67, 44857,69, 19121,29, 60923,21, 48351,38, 0,00, 0,00, 0,00
223, 64835,50, 59059,95, 1406,73, 3817,48, 44854,72, 19134,95, 60936,75, 48373,60, 0,00, 0,00, 0,00
224, 64828,93, 59052,32, 1402,48, 3813,90, 44859,48, 19171,45, 60995,81, 48413,83, 0,00, 0,00, 0,00
225, 64823,70, 59041,82, 1393,47, 3805,72, 44885,97, 19282,87, 61150,95, 48516,63, -0,06, 0,99, 0,12
226, 64820,57, 59036,14, 1399,44, 3810,50, 44876,47, 19331,42, 61189,42, 48552,66, 0,00, 0,00, 0,00
227, 64827,37, 59042,71, 1409,97, 3817,63, 44860,26, 19318,79, 61122,52, 48542,60, 0,00, 0,00, 0,00
228, 64823,57, 59039,09, 1408,70, 3813,86, 44853,40, 19308,69, 61096,32, 48545,75, 0,00, 0,00, 0,00
229, 64818,89, 59030,42, 1399,84, 3804,13, 44864,89, 19348,41, 61136,22, 48595,66, 0,00, 0,00, 0,00
230, 64818,09, 59019,67, 1397,52, 3799,89, 44890,46, 19435,98, 61255,09, 48682,12, 0,00, 0,00, 0,00
231, 64824,66, 59019,42, 1399,06, 3799,55, 44890,97, 19493,74, 61289,44, 48735,77, 0,00, 0,00, 0,00
232, 64827,12, 59019,87, 1401,79, 3803,02, 44874,72, 19494,25, 61220,53, 48743,81, 0,00, 0,00, 0,00
233, 64823,54, 59013,72, 1404,27, 3807,08, 44871,66, 19485,56, 61188,64, 48750,41, 0,00, 0,00, 0,00
234, 64816,59, 59000,13, 1398,86, 3797,36, 44884,27, 19508,76, 61218,92, 48785,27, 0,00, 0,00, 0,00
235, 64815,56, 58986,39, 1391,60, 3789,54, 44913,55, 19609,83, 61352,54, 48886,68, -0,07, 0,98, 0,12
236, 64823,72, 58987,88, 1401,74, 3800,49, 44907,40, 19655,03, 61379,50, 48924,52, 0,00, 0,00, 0,00
237, 64834,03, 58993,47, 1414,44, 3812,27, 44883,31, 19620,34, 61285,98, 48892,67, 0,00, 0,00, 0,00
238, 64835,21, 58990,36, 1406,24, 3803,62, 44883,84, 19628,94, 61261,17, 48913,62, 0,00, 0,00, 0,00
239, 64829,64, 58981,47, 1404,61, 3799,86, 44892,16, 19658,52, 61284,17, 48954,03, 0,00, 0,00, 0,00
240, 64827,23, 58968,13, 1397,05, 3789,51, 44918,45, 19738,54, 61389,54, 49034,61, 0,00, 0,00, 0,00
241, 64826,98, 58964,35, 1391,93, 3783,75, 44917,53, 19794,62, 61411,21, 49087,00, 0,00, 0,00, 0,00
242, 64828,17, 58970,85, 1401,57, 3793,56, 44896,11, 19767,61, 61313,74, 49066,79, 0,00, 0,00, 0,00
243, 64828,86, 58967,43, 1404,32, 3793,02, 44897,34, 19764,73, 61279,25, 49078,15, 0,00, 0,00, 0,00
244, 64828,28, 58960,66, 1402,33, 3789,34, 44908,83, 19796,38, 61299,72, 49120,62, 0,00, 0,00, 0,00
245, 64823,81, 58953,37, 1399,78, 3786,27, 44930,74, 19875,08, 61402,00, 49198,47, -0,08, 0,99, 0,14
246, 64828,06, 58960,73, 1400,43, 3786,65, 44924,84, 19926,13, 61421,68, 49243,33, 0,00, 0,00, 0,00
247, 64832,30, 58966,09, 1400,76, 3787,64, 44904,56, 19942,70, 61359,87, 49263,55, 0,00, 0,00, 0,00
248, 64829,13, 58960,91, 1409,48, 3799,30, 44888,79, 19925,13, 61314,41, 49254,82, 0,00, 0,00, 0,00
249, 64829,94, 58954,49, 1410,89, 3804,13, 44891,96, 19921,55, 61319,13, 49257,57, 0,00, 0,00, 0,00
250, 64827,97, 58940,03, 1392,31, 3786,41, 44915,25, 20011,87, 61437,95, 49342,28, 0,00, 0,00, 0,00
251, 64839,97, 58948,05, 1393,68, 3789,25, 44908,70, 20079,87, 61475,32, 49399,03, 0,00, 0,00, 0,00
252, 64850,52, 58958,69, 1402,73, 3804,18, 44882,43, 20072,76, 61398,70, 49394,89, 0,00, 0,00, 0,00
253, 64849,34, 58956,30, 1406,93, 3809,21, 44873,81, 20050,72, 61355,78, 49385,37, 0,00, 0,00, 0,00
254, 64850,63, 58952,37, 1404,34, 3805,56, 44890,44, 20085,43, 61385,89, 49427,84, -0,08, 0,99, 0,15
255, 64847,48, 58937,52, 1388,98, 3787,68, 44913,91, 20184,65, 61498,23, 49519,59, 0,00, 0,00, 0,00
0, 64854,01, 58941,68, 1392,09, 3791,84, 44902,89, 20244,78, 61513,05, 49564,61, 0,00, 0,00, 0,00
1, 64855,21, 58942,84, 1399,40, 3802,86, 44874,77, 20217,17, 61405,52, 49535,80, 0,00, 0,00, 0,00
2, 64858,03, 58934,93, 1396,60, 3799,15, 44876,09, 20225,00, 61364,95, 49550,98, 0,00, 0,00, 0,00
3, 64860,07, 58931,11, 1392,16, 3795,48, 44887,53, 20267,35, 61382,71, 49600,38, 0,00, 0,00, 0,00
4, 64861,86, 58931,09, 1395,15, 3800,76, 44906,87, 20329,58, 61463,52, 49660,34, 0,00, 0,00, 0,00
5, 64876,36, 58943,47, 1392,76, 3800,65, 44916,70, 20408,44, 61497,43, 49727,55, 0,00, 0,00, 0,00
6, 64888,32, 58951,70, 1405,99, 3813,61, 44896,70, 20402,92, 61407,44, 49717,90, 0,00, 0,00, 0,00
7, 64889,88, 58946,71, 1408,54, 3814,19, 44891,09, 20390,22, 61357,28, 49711,17, 0,00, 0,00, 0,00
8, 64885,68, 58935,16, 1403,89, 3807,26, 44898,04, 20411,75, 61369,59, 49736,77, -0,07, 0,98, 0,15
9, 64883,58, 58923,15, 1397,61, 3799,55, 44921,73, 20480,37, 61460,81, 49798,21, 0,00, 0,00, 0,00
10, 64894,87, 58932,63, 1401,70, 3803,19, 44928,95, 20543,15, 61491,77, 49850,22, 0,00, 0,00, 0,00
11, 64903,99, 58938,73, 1401,99, 3808,78, 44908,77, 20542,55, 61411,59, 49849,77, 0,00, 0,00, 0,00
12, 64907,99, 58937,28, 1404,56, 3813,05, 44902,06, 20539,20, 61366,09, 49854,74, 0,00, 0,00, 0,00
13, 64907,00, 58931,40, 1396,60, 3805,29, 44908,54, 20560,12, 61373,95, 49884,09, 0,00, 0,00, 0,00
14, 64907,72, 58926,55, 1385,72, 3794,41, 44931,00, 20633,50, 61467,36, 49955,27, 0,00, 0,00, 0,00
15, 64922,16, 58939,45, 1386,77, 3797,32, 44939,50, 20711,44, 61502,92, 50023,07, 0,00, 0,00, 0,00
16, 64925,51, 58942,69, 1393,99, 3803,62, 44917,35, 20703,88, 61413,79, 50014,91, 0,00, 0,00, 0,00
17, 64924,89, 58942,42, 1397,05, 3806,90, 44905,32, 20679,99, 61356,07, 49999,42, 0,00, 0,00, 0,00
18, 64929,02, 58941,10, 1392,76, 3801,72, 44914,80, 20702,10, 61367,90, 50026,13, -0,07, 0,98, 0,16
19, 64930,79, 58934,78, 1380,40, 3790,03, 44937,89, 20784,80, 61471,18, 50104,29, 0,00, 0,00, 0,00
20, 64944,06, 58944,16, 1384,40, 3797,20, 44933,22, 20840,05, 61495,14, 50151,99, 0,00, 0,00, 0,00
21, 64955,15, 58953,89, 1393,88, 3808,89, 44914,62, 20830,39, 61413,02, 50146,50, 0,00, 0,00, 0,00
22, 64957,81, 58956,73, 1399,02, 3814,19, 44908,03, 20811,71, 61365,82, 50138,78, 0,00, 0,00, 0,00
23, 64961,41, 58952,79, 1398,08, 3810,79, 44915,52, 20820,85, 61376,88, 50156,71, 0,00, 0,00, 0,00
24, 64958,88, 58941,30, 1386,77, 3799,24, 44937,49, 20895,71, 61480,44, 50231,14, 0,00, 0,00, 0,00
25, 64966,59, 58945,59, 1391,87, 3803,28, 44929,96, 20927,78, 61487,25, 50257,25, 0,00, 0,00, 0,00
26, 64976,81, 58955,20, 1399,13, 3808,13, 44917,91, 20914,75, 61405,18, 50252,44, 0,00, 0,00, 0,00
27, 64971,27, 58949,55, 1392,54, 3805,05, 44917,93, 20915,51, 61369,77, 50269,52, 0,00, 0,00, 0,00
28, 64968,56, 58942,89, 1392,16, 3809,05, 44922,56, 20912,31, 61365,80, 50279,87, -0,07, 0,98, 0,17
29, 64969,23, 58935,27, 1383,42, 3800,94, 44955,41, 20980,78, 61459,85, 50349,52, 0,00, 0,00, 0,00
30, 64980,68, 58942,13, 1388,29, 3809,05, 44957,07, 21032,23, 61475,32, 50395,70, 0,00, 0,00, 0,00
31, 64992,12, 58955,96, 1407,91, 3830,78, 44933,55, 20968,75, 61351,94, 50340,91, 0,00, 0,00, 0,00
32, 64994,27, 58956,10, 1405,37, 3826,02, 44935,75, 20936,65, 61294,65, 50325,53, 0,00, 0,00, 0,00
33, 64997,08, 58956,95, 1401,10, 3820,29, 44944,46, 20929,41, 61291,23, 50333,15, 0,00, 0,00, 0,00
34, 64995,61, 58952,68, 1390,70, 3807,93, 44965,11, 20971,81, 61374,51, 50375,20, 0,00, 0,00, 0,00
35, 65001,44, 58953,89, 1380,76, 3799,22, 44961,98, 21016,21, 61394,83, 50414,63, 0,00, 0,00, 0,00
36, 65007,30, 58957,30, 1386,61, 3806,32, 44941,58, 20985,45, 61299,88, 50393,95, 0,00, 0,00, 0,00
37, 65008,88, 58959,88, 1388,67, 3809,59, 44932,57, 20940,32, 61235,95, 50365,16, 0,00, 0,00, 0,00
38, 65011,61, 58964,30, 1384,98, 3807,15, 44938,36, 20933,12, 61237,59, 50373,92, -0,06, 0,98, 0,17
39, 65017,20, 58962,34, 1378,92, 3803,48, 44963,50, 20988,82, 61329,81, 50434,95, 0,00, 0,00, 0,00
40, 65021,69, 58969,58, 1377,23, 3806,41, 44950,72, 20996,36, 61324,51, 50444,04, 0,00, 0,00, 0,00
41, 65030,97, 58978,50, 1382,90, 3811,06, 44929,55, 20955,18, 61228,06, 50417,51, 0,00, 0,00, 0,00
42, 65033,40, 58971,43, 1377,49, 3805,79, 44933,82, 20949,17, 61195,79, 50433,49, 0,00, 0,00, 0,00
43, 65028,33, 58963,86, 1372,87, 3802,41, 44938,23, 20952,17, 61206,47, 50454,10, 0,00, 0,00, 0,00
44, 65029,20, 58961,15, 1371,57, 3804,45, 44962,61, 21000,11, 61299,86, 50506,13, 0,00, 0,00, 0,00
45, 65039,95, 58970,61, 1377,36, 3811,33, 44963,28, 21020,05, 61309,02, 50526,83, 0,00, 0,00, 0,00
46, 65056,40, 58987,86, 1388,22, 3819,58, 44954,92, 20993,70, 61226,54, 50513,82, 0,00, 0,00, 0,00
47, 65058,57, 58988,06, 1384,00, 3814,84, 44959,15, 20984,67, 61197,13, 50524,93, 0,00, 0,00, 0,00
48, 65061,21, 58987,50, 1391,98, 3822,84, 44965,83, 20974,63, 61201,67, 50532,22, -0,05, 0,99, 0,18
49, 65058,50, 58977,91, 1383,53, 3812,56, 44980,22, 21001,68, 61279,23, 50567,60, 0,00, 0,00, 0,00
50, 65065,57, 58980,30, 1383,04, 3808,27, 44979,44, 21032,68, 61299,52, 50601,57, 0,00, 0,00, 0,00
51, 65073,01, 58985,18, 1389,63, 3814,24, 44966,41, 21009,59, 61219,17, 50590,33, 0,00, 0,00, 0,00
52, 65065,73, 58975,88, 1383,77, 3809,39, 44952,44, 20958,09, 61158,48, 50557,66, 0,00, 0,00, 0,00
53, 65063,18, 58969,71, 1378,79, 3805,59, 44958,95, 20945,69, 61165,68, 50562,30, 0,00, 0,00, 0,00
54, 65061,95, 58959,43, 1367,12, 3794,50, 44984,18, 21006,41, 61274,58, 50628,89, 0,00, 0,00, 0,00
55, 65067,67, 58963,92, 1372,80, 3799,75, 44981,97, 21032,32, 61295,48, 50656,34, 0,00, 0,00, 0,00
56, 65076,10, 58974,07, 1382,81, 3810,55, 44963,71, 20987,97, 61205,87, 50628,11, 0,00, 0,00, 0,00
57, 65074,46, 58972,46, 1387,17, 3811,67, 44952,46, 20928,38, 61142,03, 50592,19, 0,00, 0,00, 0,00
58, 65075,34, 58972,53, 1383,86, 3806,35, 44964,89, 20914,55, 61152,07, 50596,43, -0,05, 0,98, 0,18
59, 65063,71, 58956,52, 1366,00, 3785,11, 44988,65, 20978,59, 61258,95, 50667,51, 0,00, 0,00, 0,00
60, 65068,12, 58959,79, 1372,44, 3786,41, 44982,01, 20996,36, 61268,61, 50685,13, 0,00, 0,00, 0,00
61, 65076,95, 58970,36, 1380,80, 3795,57, 44964,64, 20957,11, 61180,84, 50658,42, 0,00, 0,00, 0,00
62, 65078,58, 58974,43, 1385,05, 3803,24, 44953,13, 20893,36, 61121,69, 50616,71, 0,00, 0,00, 0,00
63, 65078,87, 58970,89, 1374,07, 3792,31, 44958,68, 20876,98, 61133,61, 50617,09, 0,00, 0,00, 0,00
64, 65077,35, 58962,65, 1362,85, 3783,90, 44975,60, 20920,65, 61229,61, 50665,66, 0,00, 0,00, 0,00
65, 65088,28, 58971,48, 1363,77, 3786,81, 44977,00, 20952,17, 61253,25, 50698,38, 0,00, 0,00, 0,00
66, 65098,54, 58977,47, 1370,12, 3793,49, 44964,91, 20929,41, 61178,40, 50688,75, 0,00, 0,00, 0,00
67, 65099,81, 58972,73, 1377,23, 3801,27, 44957,25, 20883,97, 61128,98, 50664,54, -0,05, 0,98, 0,19
68, 65101,38, 58968,48, 1374,36, 3796,00, 44966,37, 20877,47, 61145,30, 50677,24, 0,00, 0,00, 0,00
69, 65102,45, 58960,46, 1371,70, 3790,45, 44988,02, 20925,08, 61243,42, 50732,71, 0,00, 0,00, 0,00
70, 65115,90, 58972,73, 1381,54, 3800,96, 44988,45, 20934,38, 61253,30, 50749,59, 0,00, 0,00, 0,00
71, 65130,48, 58987,68, 1390,90, 3811,98, 44974,84, 20884,24, 61163,16, 50719,48, 0,00, 0,00, 0,00
72, 65133,34, 58987,73, 1389,18, 3812,47, 44979,02, 20850,85, 61124,62, 50713,00, 0,00, 0,00, 0,00
73, 65129,72, 58981,51, 1385,23, 3807,64, 44984,20, 20828,79, 61128,20, 50713,36, 0,00, 0,00, 0,00
74, 65129,05, 58973,45, 1374,27, 3795,62, 45008,63, 20874,96, 61228,85, 50768,77, 0,00, 0,00, 0,00
75, 65134,75, 58971,84, 1370,56, 3793,56, 45004,77, 20892,64, 61245,14, 50792,44, 0,00, 0,00, 0,00
76, 65144,34, 58976,66, 1373,78, 3797,76, 44983,64, 20841,30, 61154,41, 50756,86, 0,00, 0,00, 0,00
77, 65149,48, 58980,73, 1377,36, 3803,51, 44977,07, 20790,14, 61106,61, 50728,98, -0,04, 0,98, 0,18
78, 65153,46, 58978,23, 1370,68, 3797,87, 44987,15, 20787,19, 61128,91, 50745,95, 0,00, 0,00, 0,00
79, 65156,03, 58973,00, 1368,28, 3791,41, 45011,61, 20833,41, 61229,99, 50800,89, 0,00, 0,00, 0,00
80, 65168,36, 58980,69, 1371,59, 3788,26, 45006,44, 20845,71, 61239,33, 50818,88, 0,00, 0,00, 0,00
81, 65176,10, 58985,34, 1372,58, 3786,27, 44978,73, 20800,71, 61150,53, 50790,56, 0,00, 0,00, 0,00
82, 65179,23, 58984,60, 1371,37, 3788,67, 44969,20, 20754,06, 61105,38, 50768,19, 0,00, 0,00, 0,00
83, 65183,96, 58981,29, 1361,69, 3782,03, 44972,82, 20748,77, 61120,38, 50784,52, 0,00, 0,00, 0,00
84, 65186,69, 58973,58, 1355,23, 3776,71, 44986,41, 20783,17, 61204,46, 50828,25, 0,00, 0,00, 0,00
85, 65198,16, 58981,87, 1358,92, 3787,21, 44982,86, 20786,50, 61207,41, 50836,49, 0,00, 0,00, 0,00
86, 65205,76, 58992,58, 1366,00, 3793,45, 44971,57, 20749,21, 61125,40, 50817,11, 0,00, 0,00, 0,00
87, 65199,48, 58989,94, 1363,52, 3789,76, 44961,49, 20698,07, 61071,20, 50789,78, -0,05, 0,98, 0,18
88, 65205,16, 58996,55, 1365,92, 3788,82, 44968,87, 20669,13, 61071,51, 50782,85, 0,00, 0,00, 0,00
89, 65211,50, 58994,75, 1359,57, 3783,48, 44999,85, 20716,51, 61177,35, 50842,15, 0,00, 0,00, 0,00
90, 65217,67, 59000,31, 1362,05, 3788,75, 45003,87, 20732,23, 61199,54, 50863,79, 0,00, 0,00, 0,00
91, 65217,87, 58998,79, 1363,70, 3789,25, 44988,38, 20693,40, 61121,91, 50843,38, 0,00, 0,00, 0,00
92, 65214,54, 58990,68, 1361,47, 3787,66, 44985,41, 20649,52, 61082,18, 50824,58, 0,00, 0,00, 0,00
93, 65212,80, 58981,85, 1355,61, 3781,49, 44992,45, 20644,72, 61103,50, 50841,61, 0,00, 0,00, 0,00
94, 65212,20, 58972,95, 1350,92, 3777,74, 45008,23, 20672,93, 61190,63, 50880,17, 0,00, 0,00, 0,00
95, 65218,95, 58977,16, 1353,42, 3786,14, 44998,82, 20657,44, 61180,93, 50870,47, 0,00, 0,00, 0,00
96, 65229,34, 58983,28, 1353,00, 3788,93, 44988,11, 20626,39, 61104,06, 50858,82, 0,00, 0,00, 0,00
97, 65232,94, 58985,65, 1354,49, 3795,30, 44987,82, 20594,14, 61070,89, 50850,91, -0,05, 0,99, 0,18
98, 65232,56, 58984,22, 1347,79, 3793,60, 44992,27, 20583,41, 61085,06, 50862,71, 0,00, 0,00, 0,00
99, 65227,62, 58976,06, 1343,63, 3792,89, 45002,40, 20598,41, 61161,37, 50890,34, 0,00, 0,00, 0,00
100, 65234,93, 58983,75, 1341,66, 3794,07, 44995,87, 20608,08, 61169,84, 50906,07, 0,00, 0,00, 0,00
101, 65239,35, 58987,50, 1340,34, 3794,63, 44969,25, 20554,51, 61076,90, 50871,18, 0,00, 0,00, 0,00
102, 65241,01, 58981,89, 1334,49, 3788,96, 44962,28, 20526,63, 61045,18, 50867,74, 0,00, 0,00, 0,00
103, 65243,84, 58973,87, 1326,69, 3776,93, 44971,66, 20542,59, 61075,38, 50901,96, 0,00, 0,00, 0,00
104, 65240,31, 58965,57, 1327,58, 3778,70, 44982,50, 20565,06, 61154,84, 50931,93, 0,00, 0,00, 0,00
105, 65245,21, 58973,71, 1331,36, 3787,32, 44988,90, 20594,43, 61181,71, 50967,36, 0,00, 0,00, 0,00
106, 65254,13, 58984,55, 1350,78, 3808,98, 44968,55, 20547,38, 61093,77, 50937,32, 0,00, 0,00, 0,00
107, 65258,73, 58983,95, 1357,06, 3814,32, 44956,69, 20472,88, 61031,75, 50886,56, -0,05, 0,99, 0,19
108, 65255,98, 58972,41, 1345,69, 3804,51, 44967,55, 20463,27, 61053,54, 50897,40, 0,00, 0,00, 0,00
109, 65252,18, 58959,65, 1339,45, 3800,40, 44989,81, 20510,32, 61160,81, 50955,25, 0,00, 0,00, 0,00
110, 65261,82, 58969,02, 1349,35, 3814,44, 44989,88, 20509,69, 61166,66, 50960,55, 0,00, 0,00, 0,00
111, 65268,23, 58974,43, 1355,30, 3822,77, 44971,89, 20455,33, 61076,95, 50925,30, 0,00, 0,00, 0,00
112, 65275,72, 58977,63, 1363,34, 3827,76, 44975,75, 20402,58, 61036,35, 50899,35, 0,00, 0,00, 0,00
113, 65278,85, 58978,96, 1362,03, 3823,00, 44993,64, 20397,98, 61063,33, 50916,47, 0,00, 0,00, 0,00
114, 65277,93, 58969,33, 1353,82, 3812,96, 45016,84, 20446,21, 61167,87, 50973,73, 0,00, 0,00, 0,00
115, 65278,78, 58971,16, 1353,20, 3814,39, 45010,60, 20456,45, 61175,02, 50991,82, 0,00, 0,00, 0,00
116, 65279,63, 58973,98, 1355,95, 3817,23, 44994,37, 20423,12, 61098,94, 50978,16, 0,00, 0,00, 0,00
117, 65281,48, 58970,88, 1364,62, 3826,62, 44988,65, 20371,42, 61050,41, 50954,55, -0,05, 0,99, 0,20
118, 65285,55, 58968,77, 1369,74, 3833,39, 44995,91, 20332,46, 61046,05, 50940,90, 0,00, 0,00, 0,00
119, 65289,29, 58959,61, 1362,74, 3825,97, 45020,32, 20365,93, 61142,32, 50984,21, 0,00, 0,00, 0,00
120, 65298,25, 58963,54, 1369,56, 3831,67, 45020,34, 20382,96, 61159,09, 51008,02, 0,00, 0,00, 0,00
121, 65305,09, 58973,24, 1381,00, 3846,42, 44998,66, 20321,11, 61064,05, 50965,21, 0,00, 0,00, 0,00
122, 65302,25, 58972,15, 1379,53, 3850,56, 44991,18, 20259,20, 61013,87, 50929,92, 0,00, 0,00, 0,00
123, 65305,74, 58973,38, 1381,29, 3856,91, 44997,75, 20229,02, 61020,57, 50922,17, 0,00, 0,00, 0,00
124, 65313,88, 58969,29, 1370,99, 3848,61, 45026,56, 20275,65, 61126,03, 50979,70, 0,00, 0,00, 0,00
125, 65325,12, 58974,29, 1373,16, 3853,91, 45022,27, 20297,87, 61143,04, 51009,74, 0,00, 0,00, 0,00
126, 65332,43, 58980,93, 1381,36, 3861,91, 44995,27, 20230,81, 61040,46, 50961,89, 0,00, 0,00, 0,00
127, 65334,73, 58977,67, 1382,81, 3863,86, 44991,11, 20184,32, 60997,26, 50941,37, -0,05, 0,99, 0,19
128, 65334,57, 58980,51, 1381,81, 3865,38, 45002,57, 20160,83, 61004,39, 50940,25, 0,00, 0,00, 0,00
129, 65331,31, 58973,20, 1372,02, 3857,22, 45026,31, 20193,88, 61097,95, 50982,94, 0,00, 0,00, 0,00
130, 65336,79, 58972,84, 1372,49, 3852,77, 45023,77, 20208,68, 61114,45, 51003,91, 0,00, 0,00, 0,00
131, 65341,25, 58976,48, 1377,56, 3858,25, 45005,14, 20168,65, 61034,36, 50981,49, 0,00, 0,00, 0,00
132, 65344,18, 58974,20, 1378,50, 3861,78, 45004,25, 20137,98, 60999,76, 50973,89, 0,00, 0,00, 0,00
133, 65345,34, 58971,90, 1371,86, 3855,30, 45006,09, 20118,27, 61009,96, 50974,65, 0,00, 0,00, 0,00
134, 65341,10, 58959,34, 1353,35, 3836,97, 45020,21, 20173,61, 61116,75, 51038,44, 0,00, 0,00, 0,00
135, 65340,72, 58954,56, 1357,00, 3843,67, 45005,48, 20169,83, 61118,41, 51041,41, 0,00, 0,00, 0,00
136, 65349,86, 58965,78, 1370,50, 3857,02, 44990,46, 20117,91, 61031,37, 51008,55, 0,00, 0,00, 0,00
137, 65343,51, 58959,61, 1371,26, 3856,73, 44979,02, 20052,44, 60972,02, 50966,65, -0,05, 1,00, 0,19
138, 65342,59, 58955,83, 1369,69, 3853,40, 44989,55, 20028,39, 60984,34, 50964,64, 0,00, 0,00, 0,00
139, 65344,20, 58949,28, 1355,88, 3839,67, 45018,78, 20095,78, 61108,28, 51044,97, 0,00, 0,00, 0,00
140, 65354,66, 58957,57, 1362,07, 3848,75, 45011,25, 20110,29, 61119,97, 51068,57, 0,00, 0,00, 0,00
141, 65366,22, 58970,67, 1379,30, 3866,70, 44986,82, 20033,71, 61013,24, 51012,09, 0,00, 0,00, 0,00
142, 65366,29, 58971,99, 1381,99, 3865,62, 44991,18, 19979,62, 60972,50, 50984,55, 0,00, 0,00, 0,00
143, 65366,47, 58965,66, 1380,62, 3862,54, 45004,36, 19970,90, 60999,76, 51001,83, 0,00, 0,00, 0,00
144, 65365,77, 58959,79, 1368,46, 3849,66, 45023,09, 20023,65, 61113,76, 51066,92, 0,00, 0,00, 0,00
145, 65366,63, 58959,99, 1368,40, 3851,76, 45004,74, 20028,12, 61123,70, 51076,75, 0,00, 0,00, 0,00
146, 65371,05, 58963,12, 1370,47, 3856,19, 44980,83, 19972,27, 61039,35, 51038,48, -0,04, 0,99, 0,19
147, 65375,70, 58963,21, 1370,59, 3856,50, 44972,89, 19925,13, 60999,99, 51015,48, 0,00, 0,00, 0,00
148, 65385,18, 58963,79, 1365,98, 3852,39, 44986,39, 19921,60, 61027,84, 51032,59, 0,00, 0,00, 0,00
149, 65388,71, 58958,98, 1364,22, 3849,64, 45009,30, 19960,15, 61127,17, 51079,97, 0,00, 0,00, 0,00
150, 65396,71, 58963,97, 1362,12, 3844,81, 45007,98, 19987,38, 61152,09, 51114,70, 0,00, 0,00, 0,00
151, 65400,89, 58966,38, 1360,91, 3842,73, 44983,73, 19957,09, 61074,42, 51103,15, 0,00, 0,00, 0,00
152, 65398,41, 58962,87, 1368,22, 3850,22, 44970,34, 19905,48, 61022,47, 51074,41, 0,00, 0,00, 0,00
153, 65401,94, 58961,69, 1365,24, 3849,13, 44978,04, 19880,69, 61030,72, 51069,46, 0,00, 0,00, 0,00
154, 65404,36, 58953,82, 1348,46, 3832,27, 45001,26, 19940,75, 61139,30, 51137,23, 0,00, 0,00, 0,00
155, 65406,66, 58953,46, 1352,28, 3835,31, 44991,22, 19949,89, 61141,68, 51151,54, 0,00, 0,00, 0,00
156, 65410,21, 58956,05, 1362,36, 3844,75, 44968,47, 19891,26, 61043,13, 51110,64, -0,03, 0,98, 0,19
157, 65412,38, 58958,67, 1367,06, 3849,37, 44968,29, 19838,13, 60997,19, 51082,25, 0,00, 0,00, 0,00
158, 65411,55, 58954,69, 1362,58, 3843,40, 44983,87, 19826,40, 61017,55, 51091,55, 0,00, 0,00, 0,00
159, 65408,78, 58945,55, 1357,26, 3840,41, 45001,39, 19850,94, 61108,53, 51126,33, 0,00, 0,00, 0,00
160, 65422,28, 58956,81, 1363,86, 3850,31, 45001,61, 19857,04, 61121,58, 51137,06, 0,00, 0,00, 0,00
161, 65430,35, 58961,55, 1366,27, 3852,68, 44985,81, 19813,26, 61040,51, 51109,09, 0,00, 0,00, 0,00
162, 65423,57, 58953,91, 1364,42, 3848,97, 44973,72, 19752,77, 60985,04, 51071,01, 0,00, 0,00, 0,00
163, 65424,74, 58952,23, 1362,43, 3847,11, 44980,94, 19731,11, 60993,13, 51067,45, 0,00, 0,00, 0,00
164, 65426,93, 58949,33, 1359,12, 3845,10, 45001,91, 19756,77, 61083,92, 51102,52, 0,00, 0,00, 0,00
165, 65435,38, 58952,25, 1355,36, 3845,51, 45003,07, 19776,91, 61106,49, 51129,14, 0,00, 0,00, 0,00
166, 65445,57, 58959,70, 1358,36, 3852,39, 44988,34, 19748,21, 61034,66, 51120,00, -0,04, 0,99, 0,19
167, 65441,68, 58952,30, 1361,27, 3855,54, 44974,17, 19692,91, 60979,22, 51088,78, 0,00, 0,00, 0,00
168, 65440,27, 58953,77, 1356,77, 3851,94, 44976,34, 19665,58, 60985,04, 51081,20, 0,00, 0,00, 0,00
169, 65439,51, 58950,46, 1344,88, 3839,52, 44999,18, 19721,14, 61099,00, 51145,64, 0,00, 0,00, 0,00
170, 65448,88, 58956,03, 1350,92, 3842,13, 44998,06, 19751,05, 61125,67, 51179,55, 0,00, 0,00, 0,00
171, 65454,45, 58957,89, 1360,26, 3849,28, 44976,49, 19702,79, 61039,55, 51149,37, 0,00, 0,00, 0,00
172, 65454,33, 58952,23, 1364,28, 3853,53, 44973,96, 19653,58, 60996,57, 51125,52, 0,00, 0,00, 0,00
173, 65453,24, 58941,86, 1358,00, 3844,19, 44982,41, 19647,85, 61017,60, 51140,75, 0,00, 0,00, 0,00
174, 65455,25, 58937,32, 1360,57, 3842,06, 45005,32, 19683,46, 61111,54, 51185,29, 0,00, 0,00, 0,00
175, 65463,43, 58944,48, 1363,75, 3846,82, 45007,83, 19701,03, 61127,01, 51208,31, 0,00, 0,00, 0,00
176, 65469,26, 58948,12, 1369,02, 3854,96, 44992,32, 19658,20, 61040,46, 51184,40, -0,05, 0,98, 0,19
177, 65465,71, 58940,63, 1364,95, 3856,70, 44983,75, 19611,40, 60989,77, 51161,51, 0,00, 0,00, 0,00
178, 65462,36, 58935,09, 1362,54, 3856,37, 44984,76, 19586,54, 60996,34, 51159,12, 0,00, 0,00, 0,00
179, 65462,76, 58933,55, 1358,90, 3851,29, 45005,62, 19622,42, 61090,18, 51205,57, 0,00, 0,00, 0,00
180, 65471,81, 58942,75, 1361,74, 3853,78, 45008,86, 19643,81, 61108,84, 51231,98, 0,00, 0,00, 0,00
181, 65476,53, 58946,02, 1367,90, 3859,61, 44989,72, 19595,64, 61017,87, 51199,71, 0,00, 0,00, 0,00
182, 65475,25, 58939,29, 1366,43, 3855,43, 44981,81, 19545,44, 60968,27, 51172,55, 0,00, 0,00, 0,00
183, 65474,89, 58932,47, 1369,07, 3856,86, 44985,99, 19519,44, 60974,53, 51166,05, 0,00, 0,00, 0,00
184, 65476,75, 58928,79, 1364,42, 3854,85, 45007,58, 19543,11, 61066,51, 51198,14, 0,00, 0,00, 0,00
185, 65484,15, 58931,36, 1364,53, 3856,26, 45007,07, 19563,43, 61088,70, 51224,25, 0,00, 0,00, 0,00
186, 65491,04, 58936,99, 1373,27, 3864,39, 44985,01, 19510,26, 61001,26, 51189,05, -0,04, 0,99, 0,20
187, 65487,41, 58929,77, 1364,04, 3853,75, 44981,32, 19480,86, 60971,20, 51185,02, 0,00, 0,00, 0,00
188, 65485,67, 58920,00, 1353,42, 3842,42, 44990,68, 19487,08, 60998,31, 51211,60, 0,00, 0,00, 0,00
189, 65483,37, 58909,00, 1349,87, 3838,08, 45009,17, 19526,44, 61090,69, 51259,84, 0,00, 0,00, 0,00
190, 65491,30, 58915,57, 1359,61, 3849,93, 45002,51, 19523,26, 61088,07, 51261,69, 0,00, 0,00, 0,00
191, 65500,82, 58928,25, 1371,15, 3863,36, 44988,81, 19463,47, 60994,11, 51219,67, 0,00, 0,00, 0,00
192, 65498,36, 58927,60, 1367,26, 3862,25, 44985,97, 19417,27, 60948,98, 51196,36, 0,00, 0,00, 0,00
193, 65498,10, 58924,70, 1364,86, 3854,02, 44995,09, 19404,98, 60961,68, 51204,54, 0,00, 0,00, 0,00
194, 65498,25, 58917,97, 1357,04, 3842,29, 45015,54, 19455,03, 61063,60, 51264,46, 0,00, 0,00, 0,00
195, 65505,45, 58923,51, 1361,53, 3849,89, 45008,84, 19463,94, 61071,96, 51279,95, 0,00, 0,00, 0,00
196, 65511,38, 58933,68, 1366,61, 3855,97, 44994,80, 19420,16, 60990,09, 51253,98, -0,04, 0,99, 0,19
197, 65504,69, 58926,37, 1358,96, 3845,80, 44988,41, 19394,99, 60957,00, 51250,52, 0,00, 0,00, 0,00
198, 65501,96, 58921,59, 1361,80, 3846,13, 44984,23, 19358,00, 60955,53, 51232,16, 0,00, 0,00, 0,00
199, 65505,56, 58916,54, 1356,10, 3835,38, 45008,41, 19392,15, 61054,10, 51276,09, 0,00, 0,00, 0,00
200, 65516,78, 58923,22, 1356,17, 3837,30, 45010,45, 19416,96, 61076,39, 51307,38, 0,00, 0,00, 0,00
201, 65521,32, 58927,98, 1364,15, 3846,42, 44986,06, 19366,76, 60986,26, 51275,37, 0,00, 0,00, 0,00
202, 65519,31, 58927,87, 1364,42, 3848,17, 44975,64, 19316,91, 60942,30, 51250,67, 0,00, 0,00, 0,00
203, 65520,36, 58925,28, 1354,54, 3836,05, 44984,38, 19319,77, 60970,46, 51274,45, 0,00, 0,00, 0,00
204, 65520,63, 58919,06, 1349,20, 3831,11, 45005,08, 19366,87, 61071,96, 51329,55, 0,00, 0,00, 0,00
205, 65525,86, 58923,98, 1352,44, 3836,50, 45000,00, 19362,06, 61070,57, 51330,24, 0,00, 0,00, 0,00
206, 65529,86, 58921,48, 1351,34, 3835,13, 44980,98, 19318,08, 60986,80, 51301,41, -0,04, 0,99, 0,20
207, 65534,53, 58919,26, 1362,16, 3843,70, 44973,99, 19254,91, 60936,20, 51262,36, 0,00, 0,00, 0,00
208, 65534,62, 58916,27, 1365,67, 3846,78, 44983,35, 19222,41, 60944,31, 51252,23, 0,00, 0,00, 0,00
209, 65530,48, 58904,54, 1351,45, 3826,37, 45008,79, 19269,84, 61048,54, 51308,27, 0,00, 0,00, 0,00
210, 65534,06, 58907,20, 1350,67, 3824,09, 45001,79, 19296,73, 61070,57, 51338,40, 0,00, 0,00, 0,00
211, 65539,34, 58915,20, 1360,17, 3835,94, 44978,57, 19241,19, 60980,86, 51297,54, 0,00, 0,00, 0,00
212, 65533,39, 58908,33, 1351,19, 3828,83, 44975,93, 19212,40, 60952,47, 51291,42, 0,00, 0,00, 0,00
213, 65533,57, 58906,10, 1348,26, 3828,88, 44984,63, 19203,14, 60971,29, 51302,97, 0,00, 0,00, 0,00
214, 65536,63, 58902,66, 1346,65, 3823,27, 45008,61, 19241,05, 61067,69, 51349,51, 0,00, 0,00, 0,00
215, 65546,63, 58903,17, 1348,75, 3823,60, 45004,52, 19267,34, 61085,97, 51380,04, -0,04, 0,99, 0,19
216, 65548,70, 58903,50, 1360,53, 3835,02, 44983,58, 19208,26, 60990,06, 51337,51, 0,00, 0,00, 0,00
217, 65544,21, 58898,86, 1356,26, 3830,40, 44985,16, 19183,16, 60962,46, 51334,49, 0,00, 0,00, 0,00
218, 65549,33, 58900,98, 1358,94, 3831,07, 44998,84, 19185,42, 60989,73, 51356,48, 0,00, 0,00, 0,00
219, 65550,09, 58898,10, 1356,71, 3824,12, 45016,81, 19219,28, 61083,14, 51399,45, 0,00, 0,00, 0,00
220, 65558,89, 58906,19, 1365,49, 3832,45, 45012,57, 19214,07, 61083,16, 51399,36, 0,00, 0,00, 0,00
221, 65572,04, 58919,33, 1371,93, 3839,78, 45004,16, 19179,27, 61008,70, 51382,66, 0,00, 0,00, 0,00
222, 65573,34, 58915,57, 1367,99, 3831,63, 45007,49, 19169,95, 60991,29, 51396,98, 0,00, 0,00, 0,00
223, 65564,48, 58902,32, 1360,13, 3822,51, 45008,07, 19165,26, 61008,05, 51412,03, 0,00, 0,00, 0,00
224, 65562,72, 58898,66, 1358,72, 3822,01, 45025,64, 19193,73, 61098,13, 51447,52, 0,00, 0,00, 0,00
225, 65569,31, 58906,88, 1353,06, 3820,00, 45023,56, 19218,34, 61117,85, 51474,95, -0,04, 0,99, 0,20
226, 65570,38, 58909,16, 1360,19, 3827,60, 44998,39, 19164,79, 61025,87, 51436,32, 0,00, 0,00, 0,00
227, 65568,51, 58909,92, 1367,43, 3831,13, 44992,05, 19109,47, 60981,66, 51403,24, 0,00, 0,00, 0,00
228, 65566,88, 58908,33, 1365,98, 3824,12, 45001,35, 19085,30, 60993,57, 51396,70, 0,00, 0,00, 0,00
229, 65563,88, 58900,40, 1361,18, 3817,54, 45026,22, 19121,60, 61092,30, 51439,23, 0,00, 0,00, 0,00
230, 65572,87, 58905,96, 1368,95, 3825,26, 45021,13, 19109,53, 61091,14, 51430,31, 0,00, 0,00, 0,00
231, 65580,04, 58910,34, 1366,32, 3824,85, 45006,18, 19066,08, 61018,90, 51403,45, 0,00, 0,00, 0,00
232, 65579,97, 58907,66, 1360,51, 3819,91, 45006,60, 19052,36, 61008,57, 51411,45, 0,00, 0,00, 0,00
233, 65577,91, 58902,72, 1361,74, 3822,24, 45007,20, 19034,81, 61020,71, 51410,64, 0,00, 0,00, 0,00
234, 65575,50, 58895,21, 1357,35, 3819,44, 45022,76, 19049,27, 61099,83, 51432,55, 0,00, 0,00, 0,00
235, 65580,15, 58897,02, 1358,16, 3817,36, 45013,42, 19043,13, 61096,52, 51431,36, -0,04, 0,98, 0,20
236, 65588,76, 58900,93, 1354,94, 3809,81, 45005,95, 19023,86, 61032,57, 51428,48, 0,00, 0,00, 0,00
237, 65587,86, 58889,56, 1352,12, 3801,45, 45003,40, 19012,86, 61010,80, 51436,37, 0,00, 0,00, 0,00
238, 65586,43, 58884,44, 1350,02, 3798,03, 45013,13, 19014,18, 61034,36, 51454,16, 0,00, 0,00, 0,00
239, 65589,98, 58879,59, 1344,19, 3793,36, 45033,64, 19060,63, 61133,65, 51507,22, 0,00, 0,00, 0,00
240, 65598,34, 58884,68, 1347,12, 3797,47, 45030,85, 19078,80, 61144,02, 51525,95, 0,00, 0,00, 0,00
241, 65606,23, 58888,44, 1355,32, 3809,34, 45012,32, 19036,87, 61058,91, 51495,31, 0,00, 0,00, 0,00
242, 65608,72, 58881,22, 1359,97, 3814,17, 45003,25, 18977,86, 61009,00, 51454,56, 0,00, 0,00, 0,00
243, 65607,82, 58878,52, 1354,63, 3811,73, 45011,00, 18959,64, 61024,82, 51449,96, 0,00, 0,00, 0,00
244, 65604,13, 58871,74, 1345,95, 3806,70, 45030,85, 18996,66, 61121,45, 51491,46, 0,00, 0,00, 0,00
245, 65610,15, 58876,37, 1353,80, 3812,94, 45025,55, 18988,66, 61117,29, 51486,97, -0,04, 0,98, 0,20
246, 65619,69, 58884,28, 1362,52, 3814,26, 45012,84, 18938,03, 61032,57, 51452,33, 0,00, 0,00, 0,00
247, 65622,20, 58882,09, 1361,82, 3807,37, 45019,12, 18921,40, 61013,80, 51457,98, 0,00, 0,00, 0,00
248, 65620,30, 58875,07, 1356,53, 3803,95, 45027,05, 18917,49, 61033,22, 51469,88, 0,00, 0,00, 0,00
249, 65618,64, 58863,79, 1349,20, 3794,25, 45048,31, 18958,97, 61131,15, 51518,22, 0,00, 0,00, 0,00
250, 65629,30, 58873,24, 1353,26, 3796,87, 45045,04, 18973,30, 61140,96, 51535,66, 0,00, 0,00, 0,00
251, 65638,82, 58880,26, 1357,13, 3803,69, 45026,11, 18934,79, 61060,85, 51513,21, 0,00, 0,00, 0,00
252, 65640,90, 58879,21, 1358,38, 3808,49, 45021,24, 18891,34, 61019,95, 51491,73, 0,00, 0,00, 0,00
253, 65643,74, 58875,70, 1352,39, 3804,00, 45031,54, 18889,21, 61042,25, 51507,67, 0,00, 0,00, 0,00
254, 65649,13, 58873,62, 1358,18, 3810,73, 45052,09, 18905,44, 61125,40, 51531,90, 0,00, 0,00, 0,00
255, 65657,84, 58877,09, 1359,01, 3811,82, 45054,10, 18914,31, 61133,54, 51542,76, -0,05, 0,98, 0,20
0, 65657,22, 58876,97, 1360,13, 3812,96, 45029,40, 18853,09, 61033,31, 51496,16, 0,00, 0,00, 0,00
1, 65655,77, 58869,00, 1358,09, 3806,19, 45030,83, 18828,64, 61008,13, 51492,14, 0,00, 0,00, 0,00
2, 65650,91, 58860,32, 1356,73, 3803,64, 45035,93, 18818,29, 61022,72, 51498,17, 0,00, 0,00, 0,00
3, 65650,76, 58858,29, 1354,69, 3797,74, 45054,23, 18849,65, 61110,54, 51534,88, 0,00, 0,00, 0,00
4, 65654,58, 58865,35, 1355,10, 3799,13, 45047,32, 18857,45, 61112,53, 51544,55, 0,00, 0,00, 0,00
5, 65662,92, 58870,04, 1357,22, 3805,63, 45028,35, 18809,24, 61023,16, 51510,53, 0,00, 0,00, 0,00
6, 65667,66, 58869,40, 1358,38, 3805,74, 45026,40, 18766,30, 60987,05, 51489,90, 0,00, 0,00, 0,00
7, 65671,48, 58869,02, 1348,44, 3794,52, 45039,01, 18771,98, 61019,90, 51513,73, 0,00, 0,00, 0,00
8, 65671,68, 58863,81, 1339,50, 3786,56, 45053,89, 18819,05, 61122,41, 51564,18, 0,00, 0,00, 0,00
9, 65683,48, 58877,84, 1346,22, 3791,44, 45048,75, 18821,71, 61130,95, 51567,91, -0,04, 0,99, 0,20
10, 65685,98, 58883,39, 1344,08, 3787,64, 45028,93, 18773,21, 61051,87, 51533,33, 0,00, 0,00, 0,00
11, 65679,44, 58875,25, 1341,44, 3782,21, 45021,24, 18734,79, 61022,36, 51515,25, 0,00, 0,00, 0,00
12, 65678,66, 58868,70, 1340,70, 3778,63, 45026,52, 18715,90, 61039,66, 51513,01, 0,00, 0,00, 0,00
13, 65676,64, 58859,92, 1330,85, 3769,24, 45049,96, 18763,78, 61145,07, 51568,25, 0,00, 0,00, 0,00
14, 65683,13, 58865,95, 1332,99, 3774,32, 45044,98, 18780,14, 61156,94, 51586,21, 0,00, 0,00, 0,00
15, 65689,49, 58872,39, 1340,03, 3780,33, 45021,20, 18725,60, 61063,31, 51545,02, 0,00, 0,00, 0,00
16, 65689,67, 58875,54, 1338,67, 3779,05, 45023,41, 18693,37, 61028,26, 51533,11, 0,00, 0,00, 0,00
17, 65695,66, 58883,37, 1339,12, 3781,98, 45039,16, 18698,87, 61053,74, 51554,97, 0,00, 0,00, 0,00
18, 65693,43, 58876,57, 1336,81, 3779,21, 45051,41, 18719,99, 61133,89, 51580,34, 0,00, 0,00, 0,00
19, 65694,05, 58877,24, 1334,09, 3775,79, 45040,33, 18716,52, 61132,64, 51580,76, -0,05, 0,99, 0,19
20, 65694,52, 58874,38, 1332,34, 3770,49, 45023,03, 18680,78, 61053,41, 51559,35, 0,00, 0,00, 0,00
21, 65694,34, 58868,08, 1334,02, 3766,89, 45022,60, 18654,68, 61026,18, 51554,23, 0,00, 0,00, 0,00
22, 65694,86, 58861,95, 1333,53, 3767,36, 45025,60, 18632,77, 61038,32, 51547,77, 0,00, 0,00, 0,00
23, 65698,63, 58855,29, 1326,78, 3767,07, 45043,59, 18669,67, 61137,34, 51587,27, 0,00, 0,00, 0,00
24, 65710,73, 58863,56, 1329,21, 3774,40, 45041,63, 18684,89, 61152,27, 51602,11, 0,00, 0,00, 0,00
25, 65717,95, 58870,89, 1332,92, 3778,47, 45022,31, 18637,80, 61069,43, 51566,68, 0,00, 0,00, 0,00
26, 65716,90, 58866,18, 1327,67, 3774,20, 45022,92, 18616,90, 61043,59, 51564,38, 0,00, 0,00, 0,00
27, 65716,59, 58862,82, 1335,14, 3778,29, 45026,65, 18583,20, 61039,91, 51547,68, 0,00, 0,00, 0,00
28, 65716,41, 58853,91, 1322,35, 3764,35, 45053,14, 18624,57, 61135,62, 51594,08, 0,00, 0,00, 0,00
29, 65717,13, 58848,65, 1316,72, 3761,49, 45048,26, 18654,97, 61149,63, 51626,00, -0,04, 0,98, 0,19
30, 65722,53, 58852,30, 1325,15, 3767,32, 45034,32, 18611,47, 61061,07, 51596,92, 0,00, 0,00, 0,00
31, 65726,15, 58849,30, 1334,00, 3773,11, 45034,79, 18577,56, 61024,71, 51583,78, 0,00, 0,00, 0,00
32, 65725,48, 58848,12, 1329,91, 3768,17, 45040,73, 18549,87, 61029,04, 51572,38, 0,00, 0,00, 0,00
33, 65724,14, 58844,52, 1316,07, 3754,06, 45064,85, 18610,13, 61141,54, 51636,66, 0,00, 0,00, 0,00
34, 65726,60, 58850,75, 1321,14, 3762,60, 45057,67, 18625,06, 61154,13, 51652,11, 0,00, 0,00, 0,00
35, 65732,70, 58858,09, 1331,34, 3776,28, 45034,74, 18565,89, 61061,36, 51603,67, 0,00, 0,00, 0,00
36, 65730,02, 58858,13, 1331,52, 3778,92, 45027,34, 18517,26, 61023,12, 51575,24, 0,00, 0,00, 0,00
37, 65723,13, 58854,71, 1331,43, 3776,75, 45033,49, 18490,30, 61035,86, 51565,34, 0,00, 0,00, 0,00
38, 65722,76, 58850,98, 1321,46, 3765,49, 45060,38, 18538,65, 61143,33, 51618,27, -0,05, 0,99, 0,19
39, 65733,33, 58857,53, 1322,80, 3771,66, 45056,82, 18567,57, 61167,07, 51647,86, 0,00, 0,00, 0,00
40, 65737,39, 58864,88, 1329,10, 3779,52, 45029,22, 18496,96, 61064,88, 51591,09, 0,00, 0,00, 0,00
41, 65740,81, 58861,71, 1324,61, 3776,01, 45029,96, 18466,65, 61032,91, 51581,88, 0,00, 0,00, 0,00
42, 65741,55, 58853,10, 1321,90, 3770,90, 45042,12, 18463,50, 61051,84, 51594,84, 0,00, 0,00, 0,00
43, 65739,49, 58846,38, 1315,22, 3764,39, 45065,52, 18508,18, 61145,61, 51645,34, 0,00, 0,00, 0,00
44, 65748,03, 58854,13, 1314,80, 3763,68, 45067,62, 18535,00, 61155,98, 51671,89, 0,00, 0,00, 0,00
45, 65755,34, 58855,67, 1316,88, 3765,35, 45053,00, 18514,75, 61079,85, 51662,77, 0,00, 0,00, 0,00
46, 65755,39, 58854,87, 1323,63, 3776,08, 45042,88, 18463,12, 61025,87, 51630,65, 0,00, 0,00, 0,00
47, 65758,67, 58858,29, 1323,69, 3780,95, 45052,93, 18454,43, 61042,46, 51638,47, 0,00, 0,00, 0,00
48, 65754,47, 58851,38, 1313,01, 3771,43, 45067,08, 18484,47, 61128,64, 51673,57, -0,05, 0,99, 0,19
49, 65760,46, 58857,13, 1316,34, 3776,75, 45064,45, 18489,90, 61132,04, 51681,34, 0,00, 0,00, 0,00
50, 65769,16, 58863,72, 1321,17, 3781,71, 45055,93, 18462,61, 61060,00, 51668,22, 0,00, 0,00, 0,00
51, 65763,55, 58855,67, 1320,79, 3783,01, 45042,00, 18417,59, 61013,93, 51641,71, 0,00, 0,00, 0,00
52, 65756,10, 58847,20, 1315,51, 3782,27, 45042,52, 18390,32, 61021,58, 51632,68, 0,00, 0,00, 0,00
53, 65750,76, 58839,31, 1306,10, 3771,07, 45069,68, 18449,04, 61132,29, 51695,92, 0,00, 0,00, 0,00
54, 65749,76, 58836,36, 1312,96, 3777,24, 45062,46, 18461,04, 61134,99, 51709,75, 0,00, 0,00, 0,00
55, 65752,59, 58837,61, 1325,53, 3792,29, 45041,76, 18402,84, 61038,12, 51663,98, 0,00, 0,00, 0,00
56, 65746,29, 58830,17, 1326,75, 3801,58, 45034,85, 18342,82, 60984,96, 51621,20, 0,00, 0,00, 0,00
57, 65742,49, 58822,68, 1319,58, 3799,77, 45048,57, 18330,02, 61004,99, 51624,35, 0,00, 0,00, 0,00
58, 65735,54, 58809,70, 1313,61, 3794,07, 45068,11, 18372,78, 61101,04, 51668,83, -0,05, 0,98, 0,19
59, 65744,28, 58819,04, 1310,42, 3797,92, 45073,14, 18412,27, 61127,35, 51709,57, 0,00, 0,00, 0,00
60, 65745,27, 58820,43, 1319,40, 3809,70, 45050,01, 18367,19, 61038,61, 51679,54, 0,00, 0,00, 0,00
61, 65744,32, 58817,74, 1322,66, 3811,11, 45048,89, 18334,98, 61008,19, 51668,40, 0,00, 0,00, 0,00
62, 65742,60, 58815,91, 1322,35, 3811,80, 45061,83, 18341,04, 61037,88, 51691,25, 0,00, 0,00, 0,00
63, 65730,51, 58803,39, 1314,22, 3803,86, 45081,39, 18386,61, 61134,21, 51742,41, 0,00, 0,00, 0,00
64, 65734,82, 58809,11, 1326,04, 3815,38, 45073,32, 18385,11, 61127,86, 51742,32, 0,00, 0,00, 0,00
65, 65738,52, 58815,80, 1331,99, 3821,46, 45056,04, 18337,44, 61039,77, 51707,20, 0,00, 0,00, 0,00
66, 65736,73, 58810,77, 1337,53, 3824,27, 45054,30, 18293,85, 60997,37, 51683,11, 0,00, 0,00, 0,00
67, 65738,47, 58808,91, 1336,92, 3824,00, 45067,95, 18290,07, 61016,75, 51694,91, 0,00, 0,00, 0,00
68, 65737,84, 58804,44, 1331,87, 3822,77, 45089,14, 18334,93, 61112,26, 51744,02, -0,05, 0,99, 0,19
69, 65740,61, 58810,50, 1334,24, 3828,45, 45079,18, 18339,85, 61110,58, 51750,70, 0,00, 0,00, 0,00
70, 65746,13, 58825,01, 1348,79, 3846,22, 45060,31, 18271,39, 61013,69, 51696,75, 0,00, 0,00, 0,00
71, 65742,09, 58822,82, 1343,85, 3840,48, 45065,54, 18244,79, 60991,80, 51691,52, 0,00, 0,00, 0,00
72, 65734,98, 58815,51, 1340,52, 3836,45, 45076,31, 18253,30, 61025,34, 51716,86, 0,00, 0,00, 0,00
73, 65727,91, 58809,18, 1335,20, 3833,39, 45094,00, 18287,24, 61118,77, 51757,18, 0,00, 0,00, 0,00
74, 65733,82, 58813,54, 1339,99, 3837,82, 45093,73, 18306,68, 61131,32, 51778,73, 0,00, 0,00, 0,00
75, 65738,65, 58817,32, 1350,92, 3846,44, 45074,32, 18253,39, 61041,56, 51739,55, 0,00, 0,00, 0,00
76, 65735,65, 58811,86, 1352,46, 3845,44, 45068,25, 18201,34, 60999,43, 51708,73, 0,00, 0,00, 0,00
77, 65738,09, 58809,29, 1348,88, 3840,39, 45084,45, 18197,83, 61029,38, 51723,50, 0,00, 0,00, 0,00
78, 65734,78, 58800,73, 1339,96, 3830,93, 45101,24, 18235,16, 61125,78, 51767,33, -0,05, 0,98, 0,20
79, 65737,46, 58801,71, 1340,39, 3829,95, 45095,22, 18240,10, 61125,63, 51775,04, 0,00, 0,00, 0,00
80, 65745,33, 58808,67, 1354,58, 3844,92, 45084,41, 18192,75, 61040,00, 51740,71, 0,00, 0,00, 0,00
81, 65744,88, 58804,51, 1360,35, 3853,93, 45079,45, 18135,78, 60991,29, 51702,91, 0,00, 0,00, 0,00
82, 65741,89, 58796,69, 1347,01, 3843,92, 45092,95, 18137,84, 61019,88, 51719,79, 0,00, 0,00, 0,00
83, 65737,95, 58783,99, 1334,20, 3832,21, 45109,80, 18195,10, 61122,50, 51777,12, 0,00, 0,00, 0,00
84, 65744,21, 58786,52, 1337,77, 3836,79, 45101,64, 18204,36, 61124,84, 51786,60, 0,00, 0,00, 0,00
85, 65749,46, 58791,66, 1346,42, 3848,32, 45087,54, 18168,39, 61046,25, 51763,24, 0,00, 0,00, 0,00
86, 65746,09, 58789,94, 1351,25, 3854,02, 45085,39, 18128,74, 61007,14, 51742,03, 0,00, 0,00, 0,00
87, 65739,97, 58780,21, 1346,20, 3844,81, 45086,42, 18105,36, 61015,41, 51734,63, 0,00, 0,00, 0,00
88, 65740,45, 58772,43, 1343,03, 3841,21, 45112,37, 18151,29, 61117,82, 51786,80, -0,05, 0,99, 0,20
89, 65748,68, 58782,09, 1346,27, 3848,95, 45113,30, 18174,52, 61133,85, 51812,57, 0,00, 0,00, 0,00
90, 65755,66, 58785,93, 1356,89, 3859,01, 45094,29, 18118,19, 61042,12, 51767,02, 0,00, 0,00, 0,00
91, 65757,80, 58782,14, 1353,53, 3858,00, 45092,23, 18077,69, 61007,41, 51744,87, 0,00, 0,00, 0,00
92, 65757,02, 58778,45, 1343,16, 3850,78, 45101,75, 18084,53, 61038,81, 51767,78, 0,00, 0,00, 0,00
93, 65757,13, 58773,33, 1340,32, 3848,05, 45124,37, 18135,98, 61141,83, 51823,48, 0,00, 0,00, 0,00
94, 65764,26, 58781,49, 1344,70, 3852,32, 45118,87, 18151,27, 61145,61, 51839,26, 0,00, 0,00, 0,00
95, 65771,59, 58788,21, 1346,22, 3858,58, 45099,43, 18104,64, 61056,16, 51806,11, 0,00, 0,00, 0,00
96, 65770,59, 58782,49, 1346,63, 3857,82, 45098,69, 18070,02, 61022,85, 51791,23, 0,00, 0,00, 0,00
97, 65770,43, 58780,35, 1355,95, 3861,04, 45097,06, 18025,21, 61016,93, 51763,31, 0,00, 0,00, 0,00
98, 65772,62, 58777,17, 1344,14, 3842,78, 45123,05, 18065,64, 61117,04, 51809,87, -0,05, 0,98, 0,20
99, 65780,60, 58781,18, 1338,51, 3835,87, 45126,63, 18116,22, 61147,80, 51862,53, 0,00, 0,00, 0,00
100, 65786,26, 58790,65, 1353,76, 3853,19, 45103,49, 18061,75, 61055,11, 51821,33, 0,00, 0,00, 0,00
101, 65781,72, 58786,67, 1351,07, 3850,83, 45097,68, 18015,17, 61015,99, 51791,92, 0,00, 0,00, 0,00
102, 65780,76, 58782,20, 1343,41, 3845,62, 45109,42, 18018,66, 61045,54, 51810,14, 0,00, 0,00, 0,00
103, 65781,92, 58773,93, 1332,77, 3836,43, 45134,50, 18079,41, 61157,52, 51876,92, 0,00, 0,00, 0,00
104, 65789,09, 58777,38, 1338,42, 3845,26, 45126,18, 18091,14, 61163,31, 51890,76, 0,00, 0,00, 0,00
105, 65792,54, 58781,96, 1348,32, 3853,37, 45105,02, 18027,06, 61061,90, 51838,93, 0,00, 0,00, 0,00
106, 65790,93, 58775,36, 1348,15, 3849,55, 45105,44, 17986,76, 61023,59, 51817,60, 0,00, 0,00, 0,00
107, 65791,59, 58769,02, 1346,54, 3848,23, 45120,77, 17983,56, 61046,66, 51830,95, -0,05, 0,98, 0,20
108, 65785,65, 58755,00, 1336,86, 3840,43, 45137,91, 18021,56, 61137,79, 51871,76, 0,00, 0,00, 0,00
109, 65792,45, 58755,36, 1336,32, 3840,72, 45141,09, 18059,25, 61160,16, 51909,73, 0,00, 0,00, 0,00
110, 65795,55, 58759,83, 1347,94, 3855,12, 45120,13, 18023,84, 61074,39, 51885,73, 0,00, 0,00, 0,00
111, 65791,35, 58759,76, 1353,42, 3859,92, 45110,56, 17966,69, 61019,28, 51849,21, 0,00, 0,00, 0,00
112, 65788,52, 58757,62, 1353,17, 3859,16, 45114,74, 17929,88, 61016,26, 51828,46, 0,00, 0,00, 0,00
113, 65786,68, 58750,69, 1338,29, 3846,47, 45139,21, 17975,23, 61115,16, 51876,41, 0,00, 0,00, 0,00
114, 65797,03, 58754,71, 1338,62, 3853,51, 45137,54, 17995,32, 61126,72, 51897,62, 0,00, 0,00, 0,00
115, 65804,18, 58760,03, 1342,02, 3858,98, 45122,45, 17952,67, 61042,59, 51868,27, 0,00, 0,00, 0,00
116, 65804,59, 58755,58, 1340,79, 3852,30, 45123,48, 17924,29, 61010,92, 51857,83, 0,00, 0,00, 0,00
117, 65798,64, 58743,80, 1336,86, 3843,47, 45129,98, 17909,87, 61025,82, 51857,86, -0,05, 0,98, 0,20
118, 65795,17, 58734,17, 1327,74, 3832,85, 45155,37, 17967,81, 61135,62, 51918,70, 0,00, 0,00, 0,00
119, 65803,40, 58742,91, 1337,37, 3842,78, 45148,49, 17983,01, 61141,56, 51932,82, 0,00, 0,00, 0,00
120, 65809,52, 58750,80, 1344,77, 3845,53, 45131,64, 17941,77, 61062,93, 51906,07, 0,00, 0,00, 0,00
121, 65808,18, 58745,95, 1339,56, 3841,80, 45127,81, 17919,26, 61038,84, 51902,29, 0,00, 0,00, 0,00
122, 65808,92, 58742,93, 1338,49, 3841,48, 45133,25, 17909,58, 61056,16, 51906,05, 0,00, 0,00, 0,00
123, 65809,75, 58740,34, 1336,92, 3839,83, 45147,48, 17933,81, 61138,68, 51931,86, 0,00, 0,00, 0,00
124, 65812,98, 58744,83, 1335,61, 3841,59, 45140,29, 17933,99, 61134,01, 51931,17, 0,00, 0,00, 0,00
125, 65815,63, 58746,48, 1340,90, 3849,40, 45124,06, 17886,11, 61045,27, 51892,90, 0,00, 0,00, 0,00
126, 65812,77, 58740,92, 1336,54, 3844,28, 45125,33, 17861,01, 61013,22, 51882,73, 0,00, 0,00, 0,00
127, 65807,91, 58732,31, 1326,96, 3834,08, 45135,75, 17880,39, 61047,20, 51914,92, -0,05, 0,99, 0,20
128, 65804,02, 58726,66, 1327,11, 3832,79, 45150,63, 17918,10, 61137,00, 51955,78, 0,00, 0,00, 0,00
129, 65809,48, 58733,16, 1336,95, 3841,39, 45140,29, 17905,09, 61125,52, 51941,83, 0,00, 0,00, 0,00
130, 65820,70, 58747,49, 1344,26, 3850,67, 45127,63, 17857,43, 61042,75, 51905,46, 0,00, 0,00, 0,00
131, 65822,48, 58748,07, 1346,38, 3853,53, 45127,25, 17822,16, 61013,71, 51888,07, 0,00, 0,00, 0,00
132, 65817,16, 58738,39, 1338,96, 3844,41, 45134,96, 17820,73, 61042,95, 51899,36, 0,00, 0,00, 0,00
133, 65808,16, 58722,79, 1324,12, 3828,47, 45152,31, 17883,92, 61157,07, 51964,70, 0,00, 0,00, 0,00
134, 65811,65, 58724,18, 1331,74, 3836,83, 45145,63, 17907,30, 61169,73, 51986,31, 0,00, 0,00, 0,00
135, 65815,85, 58724,63, 1336,54, 3839,56, 45128,13, 17873,77, 61089,95, 51965,01, 0,00, 0,00, 0,00
136, 65813,79, 58722,39, 1342,85, 3843,58, 45120,44, 17825,49, 61041,54, 51935,08, 0,00, 0,00, 0,00
137, 65811,40, 58718,72, 1346,92, 3847,34, 45124,26, 17784,12, 61033,98, 51907,54, -0,05, 0,98, 0,19
138, 65810,59, 58711,41, 1341,69, 3843,78, 45145,45, 17798,31, 61109,96, 51922,83, 0,00, 0,00, 0,00
139, 65815,40, 58714,75, 1328,72, 3831,38, 45147,91, 17832,02, 61127,88, 51955,64, 0,00, 0,00, 0,00
140, 65820,27, 58720,98, 1339,23, 3839,22, 45122,76, 17782,49, 61034,74, 51915,79, 0,00, 0,00, 0,00
141, 65820,97, 58716,62, 1335,34, 3830,53, 45126,81, 17764,41, 61014,20, 51914,05, 0,00, 0,00, 0,00
142, 65815,05, 58708,69, 1327,47, 3822,46, 45134,12, 17780,50, 61050,61, 51943,42, 0,00, 0,00, 0,00
143, 65808,32, 58699,68, 1329,12, 3823,22, 45148,06, 17805,31, 61136,02, 51970,53, 0,00, 0,00, 0,00
144, 65812,25, 58704,69, 1333,30, 3823,44, 45144,84, 17822,07, 61147,26, 51986,36, 0,00, 0,00, 0,00
145, 65817,75, 58711,23, 1337,60, 3826,28, 45130,03, 17798,36, 61077,17, 51974,13, 0,00, 0,00, 0,00
146, 65817,88, 58707,50, 1345,80, 3835,74, 45120,04, 17740,96, 61025,94, 51935,98, 0,00, 0,00, 0,00
147, 65814,73, 58700,13, 1339,47, 3826,75, 45127,52, 17725,45, 61042,50, 51934,75, -0,05, 0,99, 0,19
148, 65808,14, 58686,94, 1329,39, 3816,00, 45141,16, 17768,81, 61137,07, 51980,48, 0,00, 0,00, 0,00
149, 65813,66, 58692,13, 1337,55, 3822,80, 45134,41, 17756,05, 61126,16, 51968,88, 0,00, 0,00, 0,00
150, 65818,62, 58697,67, 1330,38, 3813,63, 45129,69, 17756,81, 61072,77, 51980,03, 0,00, 0,00, 0,00
151, 65816,43, 58694,76, 1336,48, 3821,72, 45121,91, 17725,96, 61036,42, 51965,03, 0,00, 0,00, 0,00
152, 65814,44, 58691,28, 1334,09, 3820,56, 45127,05, 17712,62, 61053,81, 51964,63, 0,00, 0,00, 0,00
153, 65810,22, 58684,57, 1318,55, 3806,26, 45143,35, 17773,41, 61160,18, 52025,96, 0,00, 0,00, 0,00
154, 65818,76, 58692,71, 1326,60, 3813,83, 45135,05, 17782,69, 61158,02, 52033,41, 0,00, 0,00, 0,00
155, 65827,09, 58701,47, 1341,04, 3825,64, 45118,52, 17725,69, 61063,55, 51989,29, 0,00, 0,00, 0,00
156, 65827,52, 58703,59, 1339,00, 3825,66, 45121,49, 17689,10, 61030,00, 51971,67, 0,00, 0,00, 0,00
157, 65828,30, 58700,57, 1334,53, 3822,51, 45126,45, 17673,05, 61045,07, 51969,86, -0,05, 0,99, 0,20
158, 65829,59, 58689,18, 1322,58, 3812,43, 45151,77, 17736,91, 61157,23, 52036,56, 0,00, 0,00, 0,00
159, 65839,48, 58697,33, 1331,45, 3822,62, 45147,15, 17753,14, 61164,90, 52053,37, 0,00, 0,00, 0,00
160, 65841,55, 58702,77, 1338,56, 3828,72, 45128,71, 17695,45, 61072,43, 52009,20, 0,00, 0,00, 0,00
161, 65836,88, 58693,73, 1330,53, 3824,23, 45127,59, 17673,50, 61046,21, 52006,34, 0,00, 0,00, 0,00
162, 65835,34, 58688,01, 1337,08, 3828,27, 45131,66, 17658,62, 61058,10, 52004,13, 0,00, 0,00, 0,00
163, 65831,02, 58681,98, 1329,17, 3819,22, 45150,16, 17694,82, 61150,86, 52042,48, 0,00, 0,00, 0,00
164, 65836,62, 58686,96, 1326,31, 3819,26, 45142,74, 17715,86, 61159,04, 52061,91, 0,00, 0,00, 0,00
165, 65843,23, 58695,70, 1334,38, 3825,70, 45123,28, 17658,30, 61064,83, 52015,50, 0,00, 0,00, 0,00
166, 65839,14, 58689,38, 1324,54, 3813,86, 45126,65, 17651,15, 61047,17, 52027,39, 0,00, 0,00, 0,00
167, 65834,02, 58677,82, 1320,21, 3808,94, 45128,35, 17646,84, 61059,91, 52037,21, -0,05, 0,99, 0,20
168, 65835,97, 58671,16, 1317,34, 3801,88, 45147,21, 17682,38, 61144,27, 52076,07, 0,00, 0,00, 0,00
169, 65850,25, 58677,73, 1320,21, 3800,76, 45147,41, 17711,59, 61156,29, 52105,67, 0,00, 0,00, 0,00
170, 65857,91, 58679,65, 1328,74, 3808,33, 45121,20, 17650,12, 61053,56, 52056,50, 0,00, 0,00, 0,00
171, 65861,89, 58675,52, 1330,69, 3806,12, 45119,32, 17606,36, 61012,75, 52029,14, 0,00, 0,00, 0,00
172, 65858,81, 58667,34, 1327,76, 3799,66, 45125,33, 17592,59, 61027,66, 52028,80, 0,00, 0,00, 0,00
173, 65861,89, 58663,70, 1323,20, 3797,67, 45144,78, 17632,66, 61125,65, 52070,82, 0,00, 0,00, 0,00
174, 65868,20, 58666,31, 1323,29, 3801,94, 45142,79, 17648,18, 61136,51, 52085,26, 0,00, 0,00, 0,00
175, 65872,84, 58667,11, 1330,58, 3811,37, 45121,42, 17595,61, 61044,64, 52041,16, 0,00, 0,00, 0,00
176, 65879,82, 58668,59, 1329,17, 3812,16, 45123,88, 17566,93, 61013,78, 52026,88, 0,00, 0,00, 0,00
177, 65879,02, 58663,98, 1327,78, 3810,59, 45128,89, 17555,80, 61027,37, 52027,28, -0,05, 0,99, 0,20
